timestamp,AF3,F7,F3,FC5,T7,P7,O1,O2,P8,T8,FC6,F4,F8,AF4
0.0,47.3802256200288,53.522940052246426,11.858464912076082,37.907780466648184,46.75419065035369,22.27569600583794,61.611650419969244,37.41967251692647,69.22029076804365,48.16206243344063,50.61952169676732,73.69598806784887,8.20050358789909,45.14283500374609
0.003906504329708966,67.3470786783126,46.88744701926591,28.07911227894973,56.52695261415336,68.24084458075299,34.415318292359395,70.61440769365677,65.46837979074051,83.18919381031883,52.74228760846642,48.7678870695628,88.95794888001842,27.204501652898898,49.333204096540435
0.007813008659417931,70.06793031468735,68.75493291303253,38.51519984475162,62.86054666325687,77.2435326473122,48.98397860080524,75.58246581898186,66.63291346347367,92.33685851603872,67.24521622329138,65.24623402536862,92.08023121058923,35.63745530843281,74.7744628483958
0.011719512989126896,81.70558904593217,73.94265256158641,52.73857474646971,74.88470159922592,83.84458602155902,54.06701886153859,92.24662033952606,75.95837303771344,104.13786537198463,66.80867470773026,75.54435537912494,97.87523117269996,50.932721476855995,85.071039749851
0.015626017318835863,89.19136434796255,85.84980353084012,63.793133006668725,90.62004452433587,88.88045446994535,68.38297084370457,92.92597615496716,92.03428904588823,102.32129778561796,90.83468940277953,86.60215040189254,101.32882224227248,62.05250297949196,83.98387571925933
0.01953252164854483,100.46660314551124,100.20474179875822,75.2451497623114,95.18788362402361,88.84663108367236,75.12904882803842,99.02042695108129,84.02131118384648,97.57535694511714,89.63865091066214,92.06975491720877,102.49990720024051,74.23656358774348,90.39709977268879
0.023439025978253793,105.17412677337035,99.26563376308302,83.98385680023051,98.36176107973606,98.78129978746216,72.69235049599381,95.6325478078291,83.54461223626946,88.1978443869572,137.14093954139673,78.8361203828172,108.593788713963,80.83022291344724,83.05912276887454
0.02734553030796276,91.78899490461004,90.60732317829238,89.2266025809752,101.61514026643273,95.51938730200948,82.97744865081592,97.62525183102157,100.80583961117439,95.74296882326244,104.40105368714347,88.3305632400823,104.02464671296222,81.35660141948708,90.51853813739763
0.031252034637671726,98.38846852989512,92.47911638903274,84.44923336382557,97.01112206406569,98.03602879662182,82.72378307122628,97.72712368885358,99.12875513050888,91.33678823138811,102.33797210365876,96.46291945961806,102.3292797741204,89.7111864609379,93.49543776164883
0.03515853896738069,101.11290675980699,89.70296700137094,79.40448017223642,101.57087469261057,85.74685553325301,76.25690612636119,90.33799495320274,94.72079207650201,82.55431280058876,101.56101613713531,75.83012575372366,97.52305343650497,86.30749805158594,87.596049515324
0.03906504329708966,104.59388337833218,90.70627846606116,98.57087136073378,91.72913370716707,91.97572655315862,80.17709975443297,78.99581726666484,95.64202499105488,67.47740226156263,86.9270393688917,82.11546785478404,93.10566235039887,92.49710790174156,89.11379301867852
0.042971547626798626,100.9219132656033,83.05092164606046,89.7846601554693,88.81566894034941,82.01558832662046,69.9873120900306,75.04954872738382,82.99917255114183,67.67621450067085,123.47777724320814,68.12441813960821,87.64890775169857,80.32449895825731,72.39284427936069
0.046878051956507585,73.68110515343024,79.19949772392188,89.31312601035619,89.70059927979133,84.93709125844599,74.21408679893692,80.10098253263047,93.73443031192932,55.185256414790686,88.43615943341227,61.159444108987806,73.79857402375116,84.81379550932247,77.17057527893542
0.05078455628621655,84.775045941935,76.9149210219713,80.96796027893178,77.05930096769887,75.57868496156328,78.90188345953945,55.85025714986569,76.64465355609714,58.11198833353164,78.95895612185629,61.165546445278366,61.97697879685249,84.7280023018578,69.97535465585523
0.05469106061592552,67.07414639769658,71.02366262738502,66.37203370392898,70.74366150289639,64.35141827722597,61.28336431090407,52.8282548062746,72.1994824855355,30.10017572717568,73.98190032412421,45.11706192369572,55.822223366074496,74.81730719878354,61.37198249728052
0.058597564945634485,52.6444806299409,59.90200098899321,68.48495508016063,59.919796232081346,56.70440831891232,63.57580398957314,34.85984871246238,54.351560698810665,31.499689498788943,62.72047404851707,48.59534037790796,43.54650210260988,58.32276572741443,48.78259633845604
0.06250406927534345,38.13954323150199,37.53347878944996,56.12553621905534,50.801356855850614,50.271401130557756,49.92606550747644,32.58056931472007,48.0684418914562,22.35997340970648,60.89463472961334,21.010889426193557,29.07694514103638,65.5313492875161,53.4117645779932
0.06641057360505241,43.584398552150994,32.3319981386676,56.042496325326276,40.96164988996554,40.210596974235536,45.477004946555404,20.22456981419304,41.05295866270903,13.835383274605505,54.610866506043166,24.963405636525987,22.27156285779861,54.588331401182884,42.08360348906965
0.07031707793476139,18.20369547670029,23.721069802961935,39.00706843836808,39.35226981673265,31.384389923963916,43.36912227485417,12.30900560606777,28.849288146110275,7.604968460921375,32.56569279293701,6.446461773144945,-2.63058677321464,45.8026172750445,33.072381120561694
0.07422358226447034,9.116713000447028,19.796100740836014,30.978374670856976,27.020325976975375,17.924396397879093,45.82920144872064,15.96781975438825,25.471628125700867,-6.869369851572712,28.07817458298211,6.083514055536731,6.090630517510718,43.05412258559428,14.106257256005701
0.07813008659417932,10.976253214210061,16.240349232539852,22.15459048868526,19.118444669513565,15.783291386457295,34.7937761989427,9.711217790378809,14.546464970603378,-1.5209753127562804,22.28613640977856,-1.4116336513743502,-11.187300984277929,38.782138726657486,24.293673292452883
0.08203659092388828,-3.440976363843689,12.809870674275254,15.609665166791617,12.679867650753796,13.097220725836518,40.13986325557053,2.2166172507372153,10.222941683410566,-11.196229518493253,14.387069821613157,1.798041418660051,-16.03649580652461,29.89979746746149,9.051713201027535
0.08594309525359725,-4.142500056080907,7.2176716066835045,12.651408859497336,7.124332380586315,3.785440170105951,16.43765504865131,-2.7080454631646487,8.307458661421283,-5.869492255140631,5.014575792516412,-9.48407429896563,-17.607740960759894,7.684132879922099,13.677966572004742
0.08984959958330621,-15.341360410511282,-10.968251906582914,2.5256295465372585,-8.054473250433329,7.147800313487101,13.612885767874573,0.1971672753591136,1.6847481927117718,-18.62467201167959,-1.6487603875767585,-6.727757962478246,-31.280094091998457,12.946961392197876,11.80698901421534
0.09375610391301517,-22.452776034116177,-10.251731407518331,3.6266446582795604,-10.785792967159512,-0.7933339656164691,9.037082665256339,-0.22449255321571826,-10.51412131739491,-10.126897911209202,-7.12444079879774,-19.50132949685684,-22.866633067541546,10.059830351601335,8.891596961296429
0.09766260824272414,-28.136699428680444,-12.58211803212754,-9.213977157326728,1.1986505415228015,-3.7351892613236917,10.327939118470901,-18.545965534573288,-12.444806585410177,-17.99338622345391,-7.760466216204858,-8.299085524776988,-39.93403784425759,-4.455064790852091,-3.1077609362910366
0.1015691125724331,-22.701531026137395,-8.999739619491713,-4.650630994287521,-7.2970803392902965,-0.2788553795638862,1.4886191180653423,-11.84909344172709,-8.754711921169406,-20.347243146198267,-16.162407112265313,-13.320753622032075,-32.25782832007527,-0.8223205913754839,-17.570988189514367
0.10547561690214208,-19.581481768814246,-10.56545489107517,-2.5434141255985216,-10.738546458657158,-14.679303460690642,-3.070255706094498,-18.608487873175537,-14.077474075949464,-28.87893212063954,-20.36823369942683,-6.825465387174313,-36.53131755824235,3.273013758940203,-9.76931947432849
0.10938212123185104,-19.847745653838697,-14.281651165558651,9.723042611641327,-21.232588072474524,-15.470461315961469,3.529772747149188,-21.543330299378084,-19.276315345827378,-19.151910629968338,-32.34117940385589,-9.641144877262862,-35.6189724522109,-9.637159817256183,-8.568137370603415
0.11328862556156001,-20.235485716478003,-14.78206718835133,-3.168588698008902,-21.0821249205366,-7.791843698140834,-6.830895431998989,-28.957120739136535,-15.249502381593427,-17.489889181725186,-21.80798168256217,-7.087014144584921,-39.2939015681669,-2.723627405202059,-14.874066621636427
0.11719512989126897,-15.287979736482693,-20.283323733486718,-12.806150747097503,-18.729994880753924,-19.35389740139737,-10.695949606846966,-24.992202228269846,-18.35173313778555,-23.696990918048044,-26.727209018201957,-12.064287405848695,-32.56751061735844,-12.899888908954589,-11.609916954677493
0.12110163422097794,-18.97916878428813,-18.473971961830504,-21.954907710855863,-23.619686327384674,-24.084624053139986,-10.141554586161426,-27.49276425120061,-14.409393698663347,-22.914339198303082,-30.858076357309756,-14.589616626518703,-29.321194946345216,-13.652884229803885,-11.151757430440858
0.1250081385506869,-31.087039532531932,-23.992193131738944,-25.14979246915515,-25.018591263993216,-27.473315542861652,-14.386510609820377,-34.41406037723419,-29.640627886320033,-18.589140616720048,-25.44772324232065,-0.24811440017304554,-31.87073719119469,-13.597459213164502,-28.973537069993466
0.12891464288039586,-16.32837770563331,-25.008286131138423,-14.492911458064949,-24.571893165588442,-25.44094722409289,-29.231623509346797,-28.647108466909465,-15.562290313044677,-24.457879445331365,-37.80572606931321,-4.80330661875049,-36.98184054942883,-22.306552397386337,-24.504259561041536
0.13282114721010482,-19.483030355756313,-19.347648487757667,-25.24805355935932,-28.924717308463897,-14.988032044810026,-28.734190059860545,-32.877434852705555,-18.47679094822916,-14.133436787430828,-39.28983230919327,-6.736103470112852,-23.408882517230918,-11.827890301855037,-28.386382234852032
0.1367276515398138,-17.117098684918552,-18.10769183191451,-23.90719413747487,-36.86278001140848,-25.656731651282453,-31.244033384640982,-36.54797540780952,-23.963273257351815,-26.672682986551294,-42.41517038824467,-4.6228370440193025,-38.092869002656656,-12.94908376495751,-33.95776356866617
0.14063415586952277,-19.246189158692978,-16.59066753648583,-17.72151706802437,-32.00251085904524,-34.23641766502413,-30.370943476788273,-35.08425972123873,-18.83501152330347,-25.265908493669997,-35.641459826701535,4.111579033687301,-44.34033257761708,-15.655623360018843,-37.60651156431434
0.14454066019923173,-12.219063830566173,-14.23360219965162,-18.47988245893878,-39.491653606984286,-28.896565976156417,-23.798631406544303,-24.35281345015907,-17.061157114024546,-15.881637813231283,-33.324527293394674,3.7506838855020375,-28.585059818907283,-19.938808279102762,-41.19368521248537
0.1484471645289407,-18.911498366389228,-18.740778881258308,-24.321423830143452,-41.107566560781926,-16.489111156212704,-32.700295007555,-30.151390661037592,-12.177484552293153,-9.644523316964447,-39.16228326018891,-0.10699224823783116,-28.440319686590374,-22.48791223295673,-25.796768657171846
0.15235366885864968,-15.739967982251578,-14.839243498248951,-25.73606296399385,-37.693269486873135,-23.654402913922336,-23.204225224913635,-16.971831925210907,-6.60020957778918,-15.951187510873932,-35.49742965546022,6.900308309525178,-23.95002346753645,-21.790581169788524,-29.75342360049889
0.15626017318835864,-10.43797167503386,-8.745414963384658,-16.972609632779037,-40.81160003116025,-22.356375733578695,-21.560634170975312,-15.444899554388847,-16.77073254971719,-1.1767372971147982,-46.67784887242529,4.650747048484989,-20.10346163859311,-15.235507033746815,-32.36819416509025
0.1601666775180676,-13.159350831546332,-10.419608516830397,-20.507713577609145,-27.358724103232273,-22.682775046746105,-23.383590054243285,-21.822391260806388,-17.288947755745298,2.260221853526967,-34.26163518535877,15.258465570837807,-18.97844182374188,-12.751496858359307,-16.87811350874968
0.16407318184777656,-3.0344561255294753,-10.582823434585297,-7.393545587276659,-18.679690608631223,-12.158102092008177,-14.76996914936505,-16.771481128085917,-16.56639415593419,6.687545897271118,-30.521965521426104,15.757546395898933,-20.279222986035457,-8.795698754926988,-17.074546795218424
0.16797968617748552,-3.1018417438873414,-3.1385424537847704,-0.6646407245832187,-30.10366186886393,-6.67950685206986,-10.445737895478421,0.6070125185587667,-14.063827467306309,8.830377528564402,-34.56015891779854,19.6642666355271,-16.52495397476119,-7.668570647801711,-13.44071070471974
0.1718861905071945,-3.242354823166487,1.9548355976016132,-11.982248081155904,-6.612352562089313,-7.324213556952276,8.14283080563661,-8.193597483303705,-7.937915733308733,8.933796747875165,-16.739169985131362,21.622317279643102,-3.990153831772652,-4.870693638807925,-7.123462041150921
0.17579269483690346,5.605049543884045,6.796930170552421,1.7681699636352934,-1.8369009755529797,-3.4820277246149196,6.978681056949377,4.9085425633566135,7.145681620310363,15.540676433013937,-18.31910007520355,31.883223217219147,-9.96555957578948,-8.564805371761683,-0.8755085471219268
0.17969919916661242,2.9324764671702868,7.234310356270494,5.8961654190829735,-3.075830833581591,13.37590747064738,23.99056151369072,4.412585806459484,5.946780769456506,18.802306810137633,-13.48379199046855,39.27390712597118,4.094464974543722,12.438395060573313,13.101661084694726
0.18360570349632138,11.771669393435442,12.533295528208816,5.440966519364774,4.273377941862455,17.810682555098843,27.759733705165946,16.543309268637234,15.678030914581967,24.1672357420994,2.377726337823722,26.747955183403548,0.47488558981324047,10.986845402943628,10.769235445111862
0.18751220782603034,19.728613042664186,13.932867247662347,20.291233596964176,4.544305779664107,15.143736441989317,30.50754548714754,13.407723877604752,11.983772802538121,27.95216358970996,9.432449969306202,23.306846857416208,3.0629553167451906,13.361619828970886,24.351925088422295
0.19141871215573933,8.25421515663195,19.292231812243674,27.039943382711733,26.28230451606141,32.31883539239411,35.24964152090647,19.991720543682916,16.433078716717787,26.619888638702353,13.022083945616055,33.82408330196657,6.999012657862588,21.072197806993753,31.000926980537756
0.1953252164854483,9.310191439946882,23.502616694572502,25.335548691312596,25.133572555144166,34.15520169216478,38.61298645264622,25.66696044443072,19.58317268625243,20.755655280846106,23.675280515358885,25.048888596823282,11.272984890395927,14.893603232006221,33.383040480064146
0.19923172081515725,31.0103838450094,35.103895318302705,24.293049210832127,23.771351608338975,27.390808476038227,31.596638542805607,25.970256507355302,23.11550888529651,29.20947593904754,20.60778223095288,31.124217050409438,13.48385974479448,21.1346129274231,29.111002852934345
0.2031382251448662,18.631049979947026,31.45440661796422,26.284081109626012,26.014948666815457,27.816639579245024,31.121344143299787,28.90958718965412,27.996553033334475,15.425675848841479,21.386758847738786,28.407370976312265,9.893017685828688,11.608401024502168,39.62777521714777
0.2070447294745752,21.812533826886927,26.43001524461273,37.31341216249963,30.198145302053234,12.661772427998189,36.69615992876814,26.807728710579,31.558304677302196,16.634777657603777,23.6575880828145,28.24259203234403,18.550395650554687,26.814245564887955,27.579946977979862
0.21095123380428416,20.318396710659133,26.6046924027157,41.46497065248559,29.942384532311262,32.34988794151868,39.73467077841652,17.48820503417963,25.286216518094243,3.014245949620234,22.46615749852739,15.072960665856366,10.810215283517643,32.94530196522371,28.05198708673315
0.21485773813399311,13.89275813268128,22.085984252478035,33.25954728911658,25.34169632255422,20.50597301622836,33.49447268759695,9.872949326746765,12.52777810199278,-1.8249313740651574,22.79513990499634,14.71187093991392,18.098866308551692,29.464771506445995,16.30061880504629
0.21876424246370207,4.995232497722578,15.313936982610013,26.59708118860986,24.443529232952315,18.696701843189746,24.17256373521487,10.380631807176497,23.072553991280518,-9.093799037453353,27.594806574225608,-4.123563855913994,3.9490035622575204,28.567660647470856,25.41922268025849
0.22267074679341103,0.06608267442251714,4.453684196177729,22.044267405702158,15.308157117822713,5.48069800380749,11.705812704906759,1.3336871289548236,9.034028739890198,-24.252508663239695,12.518630434701873,-9.175697057677155,-5.0419584124413195,21.885434299659153,4.9201440519120165
0.22657725112312002,1.7930061887303097,-3.4330117119166057,5.178329423122254,4.3982179610929855,-5.794070143811795,2.9812737268833587,-9.117402770900458,-2.3229042074850046,-35.1393449203039,19.09293012568361,-9.77859178772998,-7.277972008750034,15.008869009559401,-1.0226494532298578
0.23048375545282898,-11.003480116140821,-7.952891288309606,6.318281214493269,-8.8018223274564,-12.42893905038151,-5.817872426726379,-20.643422860960516,-7.256666566071073,-52.866285195392805,-2.636391777139751,-28.96753116473632,-19.166522461671917,9.96741870582817,-8.775537647049493
0.23439025978253794,-19.95561768734603,-17.185725756057796,-5.552637766340661,-21.830898146731386,-25.788776833203592,-6.6744292001779755,-27.713477046517667,-29.106349940355955,-52.75290641433458,-7.469841918104111,-49.555270241827756,-28.65087361775805,3.9274557063380513,-32.0560763151751
0.2382967641122469,-40.75770495445398,-31.410574357478634,-16.813043624591966,-29.577367227594912,-42.01449864819882,-23.338494395437216,-48.34263738918046,-28.61975822259621,-55.10961290865372,-16.786768799386472,-42.461443635754556,-39.89474110835468,-20.983735828770772,-32.98467130751576
0.2422032684419559,-46.81894841622898,-46.11554381356565,-30.42049709663184,-41.41768386510201,-50.85920741437625,-44.411604795223795,-41.311511475539774,-40.12111982784478,-65.76287895601146,-36.03061518440673,-63.23801419628762,-45.950403251618276,-24.29704731148938,-43.35505097865925
0.24610977277166485,-61.85482602050331,-44.27402746298024,-41.90054530521425,-37.477170730278566,-56.95102861022101,-56.30042599378869,-64.9148574625019,-51.888490735969604,-72.73167619655676,-36.069723381226375,-81.87883957094,-63.876785639403614,-37.488346961067975,-56.6228908832539
0.2500162771013738,-51.43276528631397,-67.51571475390959,-54.011365644969054,-59.38828730302124,-61.89537603600546,-67.55902998018927,-75.43046772557841,-64.9850143749174,-85.29833337779974,-47.93820534032052,-90.43492214959826,-70.81987864800489,-45.6880015431437,-69.17006644652828
0.25392278143108277,-71.74417227352664,-72.97387283430825,-65.12830380573371,-61.05739726564224,-75.13328449258765,-72.63356184283487,-73.27510603771802,-70.01209182489048,-96.68963017248522,-52.789919771410894,-98.58079793451157,-77.0306777512468,-50.878374631868994,-82.14130533576503
0.2578292857607917,-86.4059278301138,-83.22333482402244,-68.86140003965915,-72.2301598601505,-79.1885286321971,-82.02327713258697,-83.96060044962539,-83.43712006790476,-95.46634791768497,-66.54850811101399,-99.95088313183908,-74.88174668552068,-64.40443595675598,-88.80356775026497
0.2617357900905007,-87.73454795479567,-97.36940626934259,-77.83630061467272,-72.69954065154047,-88.62198587170866,-93.09765449237516,-84.89780548828179,-87.23727471791719,-91.66923089461193,-70.58829612230988,-96.1518667205937,-76.23885157621119,-75.24117124266326,-91.05339608869606
0.26564229442020965,-81.30719999482224,-91.95691307322426,-88.664048933608,-80.00540467305385,-94.69848557924061,-96.23889559234443,-80.31549444749966,-96.38711037191644,-99.61186807604413,-84.18191864090205,-111.82269282819581,-94.56279314433249,-97.67060252174511,-99.24635855183833
0.26954879874991866,-87.37189031691224,-96.81640378781304,-91.64580495497928,-85.03021084910122,-94.60374004504816,-93.32209608092194,-95.23806582020423,-87.58470827632,-97.44877067906286,-79.44533518358203,-112.63836980292464,-77.05189537248597,-86.18982330254264,-96.40366586327896
0.2734553030796276,-89.09379568559416,-92.27303352029085,-96.6445901807527,-90.25492946490816,-90.82517141552356,-91.37546071382562,-81.82980804278804,-99.77663826688654,-92.51908814934475,-90.53811340865153,-100.22981091206897,-71.17631362860949,-101.2167713616332,-90.23658630358433
0.2773618074093366,-82.34615123830642,-92.12176539791926,-93.10390116574219,-84.43584773770905,-92.84447174500033,-97.60212660261224,-82.9668080386402,-101.78894206888238,-74.22804099978836,-81.46248667986522,-99.17537090366481,-80.73568226925225,-98.29149660269222,-88.26767279267831
0.28126831173904554,-92.93875066842082,-92.34668749581041,-97.30313946357862,-87.32698591252392,-87.69600699899348,-99.74421494952621,-80.4967549679178,-93.004179727236,-64.25442145398205,-72.64920810201693,-93.88392531678056,-65.4052201628928,-102.51118682501576,-80.84392312711806
0.2851748160687545,-77.28176103157718,-85.68787972014471,-92.22055996732922,-76.99437582459765,-81.85560568228689,-89.86995634855705,-71.21482763235849,-88.8196776978055,-63.0444026054598,-66.80460594771877,-83.27184533986483,-58.064170151393235,-95.08621522993849,-76.93227194760418
0.28908132039846346,-61.25921710441143,-70.81832287409323,-85.1973584939846,-72.98791254195058,-77.18391535234719,-79.72310903557424,-54.22107399607426,-73.99212905973152,-43.370214975961304,-72.58077146560886,-63.491394794989894,-47.33598149803493,-98.71288387178342,-67.7792038286335
0.2929878247281724,-65.65705062421402,-65.72257561611262,-81.6727921131721,-64.76439180764137,-62.21660376358931,-68.64407370878712,-51.231314302101076,-75.7404282754652,-41.52364390154819,-56.45883677259429,-61.72610045549843,-30.54338289969517,-95.04479153960843,-64.2365879901813
0.2968943290578814,-49.2069139677691,-56.74701800565137,-74.06915638299918,-53.86715328523172,-56.82831833424989,-54.310887841580715,-39.953422349695934,-56.55511761068356,-27.0726257875556,-43.31229380696318,-53.46082788833521,-28.889151035761113,-80.9939404219438,-55.2261766677294
0.30080083338759034,-42.36467950738104,-38.70241320667647,-52.87273328996052,-38.209636380381916,-34.94920624063719,-41.425956929621556,-25.763972064027723,-54.11990345421343,0.23468032309991216,-42.11669414338725,-39.46114966964566,-22.15328033115637,-63.08413746531809,-42.10442030973689
0.30470733771729935,-26.296749432288628,-41.03933989735441,-66.35293897411125,-30.583969319620486,-22.907227578878736,-44.52123431749724,-13.908161468762582,-35.86490278728661,-0.017738778286148893,-30.69975570209697,-29.41017854407984,0.6254141546532582,-57.14129796312231,-20.043819499943133
0.3086138420470083,-6.65622112004534,-17.7529029665495,-39.07715585132266,-22.60005438002418,-15.192925885423811,-35.65092070837353,-0.021458436975715145,-12.089656592335956,8.782262272549644,-15.113215433014288,-19.379149548485497,0.17686159723219674,-42.43070916400768,-13.585517192030007
0.3125203463767173,7.79741013619816,-16.636793427637134,-34.73903420712915,-16.615136687697756,-19.7776626866752,-32.167900184144315,12.242219068820159,-2.421601208888868,30.129481254830452,-9.60598185682868,-2.5276257654904217,22.04541812709392,-39.516807255852825,-7.033367201129119
0.31642685070642623,13.692321427715575,1.4939153294924306,-12.9370615957376,-2.0085266708127447,11.312053792001452,-19.108304310696486,15.165119096120264,2.4155700110952276,39.995306292710985,6.274953155127148,10.04136174898971,34.69655287042598,-19.060871425820274,5.350633915392023
0.3203333550361352,22.710864617185408,20.34586666267112,-8.670390936894602,11.961548010944396,17.613854576476143,-8.689279446330298,33.07340161154919,15.74626548222297,41.19778921409701,19.41206241949869,20.412048180889308,49.36858015298279,-15.183370393962296,9.625681031021152
0.32423985936584415,26.134188708082583,24.923472997794352,7.72456290738603,22.665086700468827,25.709929572586,1.8513336807816252,35.51443438457537,20.67443015914715,52.45864868389211,28.156526928582,29.72315451352813,56.46706981101065,-3.800321723152967,20.286107381122466
0.3281463636955531,36.865384741600806,24.890884502879665,10.08947938376293,34.281307516492184,34.08451042620496,-4.710483116810067,47.488613748348286,26.241118174171717,64.33874606531009,38.566231969116124,33.89025756770997,73.57047157244506,9.750700271624037,25.145910384669467
0.33205286802526207,51.78348251194337,41.42829453017632,29.479544680019405,39.956178111484896,44.97983342060098,17.04834101621538,55.73988016327263,43.67451359256352,66.89535433324474,43.36321568029518,41.490693175821775,74.24127030757923,25.463870670892806,40.12542963995297
0.33595937235497103,68.1875039241234,59.856006145227454,31.415521141022342,43.567879637733114,52.831616257216886,28.783911893075448,53.18414526189688,56.0546805210165,68.67529022343727,39.91462903797963,47.86782159723589,77.84176300345318,27.760504658863184,47.771909570586
0.33986587668468005,76.01287006520214,52.866918412427,31.449964658763722,41.43350557446418,48.0685923451836,27.63816858392178,59.65146260561668,60.42802532855167,74.22320497577999,63.83242617725798,54.55031000748153,69.48481881814426,43.3013023775487,46.34211613013941
0.343772381014389,73.0323608744501,54.197889952760036,50.96771157448535,44.588953055759774,59.5224260604766,25.392833864312063,64.85758171890016,69.12847570540123,79.86022345330136,76.61765496828116,61.28371367513184,74.21050452931219,43.91418856870321,43.27122569331081
0.34767888534409797,74.74599934980348,61.64847623933803,51.581461682702475,53.44368783154876,66.60801789932847,36.482274368539954,56.882084879129046,68.18284864412827,70.98987469515215,62.31629546484986,70.9935345887283,74.30112999061309,44.49445548389659,56.707106420638105
0.3515853896738069,79.50096617803513,72.4221085003589,53.72667584559702,69.1527875652001,59.80695600360226,50.49628723208066,71.08994235810638,72.46414818789862,70.63988673655633,65.1277960478434,68.92202330859003,95.94992949448724,53.026144223444305,60.57133079730095
0.3554918940035159,81.04184735088306,65.06049285486131,54.8113882895898,71.56625510865159,73.61000804521808,54.43212897602064,68.2112472703038,77.13236969251696,73.29285042965502,76.7519411359374,68.143859094124,89.00995970155726,56.106693771702666,64.50148187960738
0.35939839833322484,88.06815456667469,84.78748096375169,70.96083847582356,73.62800292093532,73.76759261726593,51.787664066965874,82.43115187838605,76.27136568277855,77.09888195461507,75.55969619415518,60.86511414354519,83.10184197271519,62.18150111865085,77.36470641453717
0.3633049026629338,87.40628272223255,67.85780452439433,58.366246515934066,76.24747191295778,73.41321251080858,54.672417816423646,83.94576280734695,72.70055162766664,69.4563023386947,74.10858427264752,62.25680617247826,83.02962334930334,63.82723462658515,76.59892275448284
0.36721140699264276,67.04934556204242,72.91163020101396,69.46846745406464,75.97811212640133,78.26425320895181,58.83264232151135,84.90708523489964,66.07448007741806,64.4704461422138,80.70289314416465,59.178346016698534,74.38286402201244,76.77457628332454,79.45726745977984
0.3711179113223517,69.23554695121231,72.67298811317966,65.98965787342313,63.531460461441036,80.98591430907543,63.118363221459774,82.98569298069027,71.24112540715221,59.52252983865863,79.17085708934042,49.74073090628736,67.93456773137592,69.2831936738118,76.39669461788783
0.3750244156520607,75.7731109009762,69.73652402923756,74.57922255442278,79.13647187917704,75.73959437735012,83.33039347855735,84.06166739811995,72.29578197035879,63.844903804143264,78.43064880482183,59.08090900192419,73.27138764309909,71.98844899820459,75.46676047767839
0.3789309199817697,64.24800868518531,70.31308257876056,65.67052564670475,78.23226767954652,79.65355910042116,77.84244237398899,77.979605445724,69.0273667931137,70.38161567662715,74.03691711224194,53.57324240093064,59.70973236830666,67.57444602613032,73.61641808606979
0.38283742431147866,69.62723642814046,67.74072554926683,49.28471807478819,80.2540487533084,67.60396683694276,72.47320367470441,74.1506163205644,74.79669539174955,53.25766791710025,87.53143873314298,63.8469886638026,64.03162544532287,72.64303962274356,78.25424649041712
0.3867439286411876,69.54304690931424,72.03041640219654,79.64560056116764,77.72696091289855,78.55417173248208,84.73393529387545,76.38084410540448,67.83307859305673,49.496389585148634,76.35905756347984,51.87566545681479,56.6405286707748,71.09542557167124,78.8239255004377
0.3906504329708966,48.128971763458054,58.74154237796468,63.840350363634414,73.32971355664874,71.0488716476986,77.72397034966556,69.23156156362555,58.177062762084496,60.05147961944199,73.31890195293566,55.28766129172218,54.599476789901345,57.636968228461015,83.50794355791564
0.39455693730060554,50.684097043559845,65.2945780446665,72.72523061851217,73.11688843681237,63.47164950602781,78.15720465599085,53.81534915685706,57.80002510253996,45.42887085136851,77.02886841235318,42.6126940213309,51.578844909979125,65.69843384749062,78.79794212430232
0.3984634416303145,45.22064383449982,62.780802137277085,66.08013241568034,67.4284468624235,65.14176983489386,69.03972825715962,58.56615394869271,65.77294828948959,39.3566068650359,59.60658974373883,40.99526634911055,41.58505322396729,65.87305400920816,64.14405190929045
0.40236994596002346,39.572526310138414,50.34534792767893,52.0115476435623,73.32524729061727,58.07426651452826,67.91181486729045,43.97515137832451,54.57406892692933,27.191001425747913,56.523085149023515,36.15501392010102,33.79803934417466,64.98915238832299,62.629661528673246
0.4062764502897324,40.02045645087496,50.644778253442766,55.96459524292888,52.680044118788416,55.317636533120655,54.35696423965276,45.48533103572197,46.64904936415836,29.356274460533044,55.46085995006512,30.004006861109527,22.935208973234968,53.39739667103006,46.63798376743408
0.4101829546194414,31.745823598351254,45.975531889127524,58.54016380652387,43.68266778181476,46.34554201078426,58.430502858472124,33.74858719686844,42.74911818155116,22.5648292946268,50.066374973832325,24.954860441859854,32.61832211777694,53.35507685291117,53.985179248612425
0.4140894589491504,32.86206172681398,34.16113366404415,59.73267619176555,36.26662306162862,30.222885309238794,63.85843210781929,29.481856483676115,33.85856493864284,12.151522444734859,33.62498422135024,20.554232400430653,16.748084093946066,50.43125624995586,40.12098748058613
0.41799596327885935,20.15618629758143,-13.190176414283126,41.35639306769372,31.91994889521681,27.5873588687094,34.55912612065037,18.479195626789874,29.41231177123587,4.878683827498395,33.30586466198807,16.07295378999141,-0.2731531370979896,43.0762344708844,25.928410874830693
0.4219024676085683,17.723644289985643,12.918501279288364,44.78302245411703,25.607546113493196,13.89499972904953,33.439627263251225,10.652068657246588,12.60527977226425,-2.788564985979865,20.07551087276311,0.47262322987403316,0.6322637298249871,35.81101703162555,21.90477309965731
0.42580897193827727,-17.0742652543258,2.3280230054629882,21.340591632703187,14.420925883981376,-29.10249377594557,16.283781867651765,-3.341438106154153,15.955178935425925,-7.088718791724631,10.445570708004766,-0.9722627707842397,-20.394690428617835,24.2568562976344,9.508673146401899
0.42971547626798623,1.3800090546792116,5.923980443858469,14.954664775065005,5.918701923994821,-2.9550096611351147,9.39341542242031,-16.33848553048098,-7.001235550139574,-17.36170002204778,-1.5981875690712002,-7.237923444160403,-20.926176381412407,15.745530317768626,-5.437586728440297
0.4336219805976952,-10.512887486463569,-8.233938207527,2.630563005724934,-8.920053244262029,-22.4758498463869,-3.5280381880697353,-17.810593673487563,-7.637623493680951,-24.478498088844866,-6.9549937205675105,-15.492928074471884,-29.87745819297409,15.221104901966548,-6.902711097176123
0.43752848492740415,-13.679729401454829,-15.297350186272984,-1.1247748620227518,-12.380119915865397,-25.503970648429533,-8.080777229003443,-33.73794218783625,-16.23090186231918,-33.788734995874826,-16.62242781585169,-14.803954462675595,-48.32697327611941,-1.0147025948689743,-18.147899829955733
0.4414349892571131,-26.86295270688954,-23.55558963089584,-6.654975223497968,-35.062305850149315,-17.02311468777525,-28.50318428073524,-43.68284761930529,-18.25347586227678,-37.80428217235097,-26.698230435135045,-18.73340039529733,-41.45828049926889,-9.519686701714242,-19.67832139683355
0.44534149358682207,-25.80167609038439,-30.648518002172143,-25.792781062798728,-28.72515956870414,-45.970797208243866,-30.858120588124315,-40.429073447528225,-34.0076694986913,-34.586748949516696,-39.87397858095308,-19.78531389194353,-49.90640443251553,-9.122146172057931,-36.22104852871283
0.4492479979165311,-37.960040020318246,-39.86184988060157,-30.486592124830615,-42.93732352712979,-41.794187891535316,-39.452987292079285,-46.42095069165875,-38.51167769043669,-40.747709492263155,-43.044434999303014,-30.285688271856156,-56.702927792067086,-25.936553501977237,-38.87538650465745
0.45315450224624004,-42.34858877397453,-34.76666615377321,-42.440297352830456,-50.39576593978947,-55.89544610581254,-36.190253180993196,-55.52177801132239,-41.32566215462088,-49.71275551150984,-55.626230332621745,-36.318314788396755,-59.7789798712046,-28.811389461184465,-45.27311919550486
0.457061006575949,-38.45948664988549,-43.64092977565561,-39.58576762920967,-51.59903860008025,-42.36483177512854,-38.6747728552152,-52.86064281422244,-41.70517489312385,-45.11206649322446,-58.42288556311352,-39.91804608828349,-57.27155935099274,-32.253331479924206,-56.67389617394913
0.46096751090565796,-54.35564600113666,-38.151549872593094,-43.122046387381474,-52.20727406589358,-49.089453589136085,-39.75096048661629,-57.97232891897176,-49.19738821160784,-35.897294134621006,-60.5970076924843,-28.218584923698888,-53.61984841226542,-39.3565066534364,-58.76077415127712
0.4648740152353669,-41.773358375654205,-43.24559189818647,-35.29984744488169,-55.37938255681363,-44.35892068634108,-46.34278505642529,-55.11316706948657,-51.86098706372656,-31.427789542822985,-67.83907964291325,-27.79204042368007,-59.70057207672975,-45.417388107646325,-59.58904665793854
0.4687805195650759,-34.25168962301758,-37.860657278955735,-50.25662612464066,-47.88010200016671,-38.14873573088231,-37.065792112769905,-49.99689353262395,-49.87959356666284,-37.27917489912919,-60.816882508755576,-16.931753552936108,-59.21394218001776,-42.272217390585126,-52.89027811105397
0.47268702389478484,-43.48746126356234,-37.89628637189451,-40.22873119343971,-41.996323169651035,-35.32793313161105,-32.79128838974971,-41.72623645885921,-37.487997772675506,-21.70554318011207,-64.49747626833927,-17.21923080386778,-46.49236261588674,-40.75734347855088,-42.492812173481454
0.4765935282244938,-37.42735692305221,-35.72043874034058,-41.56088790968537,-44.482378654594555,-38.6024299260747,-34.39405928759196,-39.95943389009332,-35.424781804285956,-16.685411266372412,-53.106696529505285,6.376475752637189,-49.459096216441054,-35.97191952561407,-44.1334141562122
0.48050003255420276,-35.13766633592887,-29.486590211249524,-39.16077438212787,-38.507391875605315,-28.595260990619522,-26.884841401174036,-30.472306132640327,-33.68799360781438,-13.315920505006982,-43.555738486648195,0.3987557520390332,-32.497239578293204,-36.49077216990524,-26.076591695071272
0.4844065368839118,-19.781689723252377,-21.950223772815622,-26.02904882299634,-32.47645094167688,-24.82212230249699,-22.48689895583797,-21.85278657998247,-24.63999588279643,-5.825719238671749,-44.267141626731146,2.401208447292924,-32.22343757388277,-29.38271189642088,-25.337031535379925
0.48831304121362074,-14.886158146063414,-0.25549399800424943,-10.7307540129212,-24.456746301642745,-22.721519799614626,6.014666574989544,-8.575313193789178,-14.890971744351225,5.3318852364815,-34.131246348429706,12.715989959027892,-14.828422580197888,-8.88094248111894,-8.595214745634138
0.4922195455433297,-7.788697518575448,-3.7021494221264475,-14.382085747503695,-12.232234815088663,-5.914848169141981,6.4107344818733925,8.404458191000874,-5.322425333652582,18.347037934473327,-23.20241872208774,23.02122635656078,-4.654694640521779,-18.65683041438012,2.4193681653379606
0.49612604987303865,1.2641256812589918,7.529883274256608,-5.6980650615910715,-7.669734390652338,2.761564567659429,13.724210183928992,12.120578673784458,-0.033195740102119564,24.75641205460173,-27.80175873071147,41.18853327575165,12.553414003961546,-3.2098268963305845,5.2356834598634885
0.5000325542027476,10.162089842187468,17.299639444871794,10.861367873467966,-4.684579836424035,20.685673550959024,24.303316765306693,15.783819429034528,10.515573833321966,26.66241398160043,-5.972399375104187,42.35665637067731,5.892820667225287,6.767832284412133,10.7379929398134
0.5039390585324566,12.029416625418165,19.918210087747376,14.54272588619067,4.380569254333117,20.991740663085082,24.527710512541816,18.75498911246371,20.709202873517814,38.18635311456014,-1.2890774182703084,43.14351519825663,14.794777215219602,15.249188484146668,22.442379255767108
0.5078455628621655,28.707389779500417,32.87301056499321,19.566796007492105,25.912873372554756,25.331376037929452,39.27288423850975,26.44555037811796,22.67232273117966,44.4807514641862,4.655115471542601,44.63985325453744,21.827493094704806,17.350871276128316,26.890160631283656
0.5117520671918745,22.261597909430982,36.525230898860634,31.703368109333354,31.579592252939747,34.92006266135252,49.51923113600144,38.09535283398372,28.91644120290596,41.531310009178796,8.885070098507505,46.65824431055871,22.35470319192584,28.11119359738159,27.87778276464583
0.5156585715215835,38.636340238763324,37.130932928696446,35.59357306752419,27.55952980960542,36.53493934302196,41.408849953826596,0.5157652078138568,32.13085023748412,37.55733602668829,21.65973531946588,47.1089761114678,39.51382170531025,38.12186698301541,30.84911387118182
0.5195650758512924,35.390286732097145,39.0664963117701,38.42796602143858,22.12992512025049,31.328012911232676,32.620351918198985,30.390762437586467,37.817410887421595,28.566180713430228,36.1935636375804,56.33497974787663,29.134208609073568,46.12610414756281,34.39989402599241
0.5234715801810014,47.31537028595775,40.19770950106117,41.27032106358305,37.81436725538414,33.64068783784273,37.4829842786018,34.60877477442556,37.858945662239265,25.098859895768445,30.310973335420893,45.40318876840829,26.82179460224902,45.264475308195955,42.490902086361864
0.5273780845107103,37.29153083968351,38.540188183992996,47.48490640408843,34.107310073057214,36.483711526493735,43.398027341619326,29.139671887283217,36.13922611085461,20.97346567134541,20.706087823897512,49.10708754360538,29.151669772958922,49.00190547131285,35.225574213840666
0.5312845888404193,30.745392511993007,32.0062709356385,41.025446058802245,30.370064442136467,34.51855156099861,32.79115747609475,16.23311788160784,42.612745524193,13.708866429870895,28.94753416084147,27.567008221621492,27.38441281973026,39.206091696427684,23.147280902886493
0.5351910931701283,32.13069300829035,31.13675285242976,33.274853773355034,32.95628529881756,24.845126277241377,34.96603049918154,17.743328133406525,32.055383328822714,8.503953238479813,19.760201685136135,21.821457846220632,15.591548644369404,40.23192679239738,16.123384351092547
0.5390975974998373,17.572534324598994,15.264421732780624,36.47243214877878,19.160775373470166,15.184770623496787,19.590493970479365,7.95257430865422,34.02637355017814,4.044082621653708,23.069105002726054,10.18943583917898,3.009047888116128,30.085612378441482,16.63293237865091
0.5430041018295463,5.383215101439937,20.99078366017795,23.004900671941957,12.240497212142321,12.219168615793755,8.503122035237023,0.9946070745613386,22.343238328861595,-8.646678803642995,7.47541906917845,7.368041505587774,0.8705008193043346,29.42327467864555,9.282824187283149
0.5469106061592552,3.1695310266324697,3.4740805917692468,17.362531879227625,0.25919400349219046,5.736441185563611,12.141391576702453,-5.538232898721975,9.766017883526061,-14.543098139566997,6.13250989650701,1.3221882970141818,-6.078187324635763,22.130635785396315,5.281749468214276
0.5508171104889642,-5.459716136614519,-11.36241881476386,9.613344196945883,-5.096402841488253,1.5333422236272742,-0.8669987140180533,-19.09943965091227,1.0871210813766585,-33.46132514768639,-3.6813990546232436,-24.42378580385364,-14.769113812231891,7.212212087229558,-10.640730594621301
0.5547236148186732,-14.045100873918615,-10.969381344924862,1.2599365207755167,-24.164588091545035,-14.743968080925036,2.513464939828534,-21.30787361452909,-7.692084731381546,-52.70720798511613,-2.2835221649532444,-28.215506810530364,-17.0079079862198,4.774697076223671,-11.688848282596675
0.5586301191483821,-27.12230235170522,-23.367805978921854,-13.699286898421972,-19.619296105803336,-24.369429665698792,-10.426845892170006,-36.08715705010009,-21.250359842293694,-45.476817553159734,-9.817136642598587,-34.028430624634396,-29.259991061451025,-5.376077083649198,-20.022184511315054
0.5625366234780911,-43.501243455427,-30.72850507524528,-5.165962775241134,-22.442380608005923,-39.01416975191605,-23.471476734475715,-31.998812219749663,-25.741534597944003,-64.81625191999568,-28.48351262981576,-39.61884312799324,-38.91439978289838,-14.53210901447225,-39.6591318311964
0.5664431278078,-44.18268222375344,-46.79714700998736,-24.736632941958792,-37.08581348074253,-44.08291870798389,-24.045479735886865,-49.23506263707041,-38.27305900825201,-62.552042968914286,-29.719594600179676,-52.34713028403155,-48.101145604075256,-25.59040415516549,-30.192923522473695
0.570349632137509,-53.19114741184539,-51.11872479468071,-41.255724160089336,-47.16737603853307,-48.72383861145175,-40.66783774482943,-53.0049712202984,-41.596400380333115,-75.06394089923724,-36.41839939814714,-70.1918315229122,-57.88488251926261,-33.85726979849807,-50.08818628029972
0.574256136467218,-67.66830504678472,-46.67876199147078,-45.08050249855552,-36.10755011673027,-56.422543510573554,-47.32578739117884,-53.07051613665888,-56.06051174716487,-71.27159674938726,-38.449606616421576,-68.96389159695431,-59.39238857509207,-52.364310933789255,-52.03694619002558
0.5781626407969269,-75.94033411227004,-67.01720773133121,-55.171478228524286,-48.000020431703234,-65.632471087514,-42.39162296597411,-64.107912066426,-57.15697113502749,-66.94936777484098,-44.24552570672865,-79.48439257851129,-73.34200309470826,-49.73433322409535,-54.50660216367275
0.5820691451266359,-70.05947075175388,-64.36974180100457,-48.25650614160108,-62.52511330209963,-61.69033907073791,-51.409408817665124,-67.89220762154243,-79.76910889089245,-73.7189613650645,-59.120694619616415,-91.52727009145617,-64.63515257857708,-61.14884735656971,-56.599824501198796
0.5859756494563448,-77.77203431323262,-71.56826409148432,-63.24021031320235,-54.94666419276936,-71.9451898839448,-59.30915204836351,-62.48359337163979,-75.89895454583979,-79.71532200007714,-51.16955421787367,-81.87552309346398,-65.81417093175179,-68.34761770382174,-57.09220355300354
0.5898821537860538,-78.25964156053843,-73.77828576151123,-74.51002282825506,-65.8631111929552,-59.97244669945046,-60.68423758536943,-59.672812143984956,-69.5193302825242,-66.3932552457618,-52.161302259986144,-91.33408099082561,-55.349135913557745,-64.00120620389302,-58.664787093232725
0.5937886581157628,-83.1900624733407,-77.918308594236,-77.41556294370024,-66.99209363228114,-69.98918851509312,-67.48763261284032,-72.1488133791962,-77.36404846795848,-74.05962728613157,-61.776628902569776,-81.56281474777772,-56.56065627523796,-58.221494069013005,-63.10280304812208
0.5976951624454717,-77.47197874875904,-74.55128183530037,-76.20165848082365,-67.15499705214197,-69.76353988319123,-60.57672309074154,-61.88291179395364,-75.81373345523329,-75.09935253390022,-68.20781674005052,-82.36404053977206,-55.11401018662246,-80.07634980820248,-63.9328405423276
0.6016016667751807,-76.85747150950068,-81.38493325315771,-76.74745195928085,-66.95980234762516,-72.48611990481385,-61.2592834753507,-66.3643713436556,-72.48809253539793,-67.98935501765406,-60.261949449505316,-82.19625694999621,-62.788080572942015,-81.73257324143573,-63.218733916265485
0.6055081711048896,-67.0365920626286,-70.12131518502721,-71.5749164959589,-63.31607979374942,-78.5668078151587,-70.2502427873923,-55.61171067755525,-73.59358829838034,-59.27070503549166,-55.639395209838455,-67.47970320814957,-59.83787180831337,-72.37845258226986,-61.074581088916005
0.6094146754345987,-71.18978267151743,-68.94079669834007,-68.99022575840927,-73.85067891295328,-63.8371436703009,-65.04502041602817,-59.57693645125654,-72.10354532632967,-65.45756231238524,-54.85225906243836,-76.51017252653794,-43.91460778738662,-74.44151737121445,-62.81071502470758
0.6133211797643077,-64.52531695272009,-63.70340055265031,-68.66947290105907,-60.81004858669334,-57.39262313976972,-66.25562745563096,-50.71602890994883,-64.57775681782609,-45.203350609537864,-55.109474272146144,-71.20365771911528,-43.390877381721346,-70.66857338375327,-64.57673643933757
0.6172276840940166,-62.22815557002668,-64.24071698681658,-70.72330916594461,-54.610031453772415,-54.3645282035744,-66.80099838372844,-51.25633672655991,-59.97649029510596,-46.294833641633126,-50.035513541601304,-61.64126127022234,-29.644310597465964,-77.4046384165366,-53.491873033636075
0.6211341884237256,-48.260567972622276,-62.21643118351531,-70.51391441155398,-51.61399585404947,-56.85489886548958,-79.21522110687201,-45.5652437091857,-60.06618118985825,-45.228611468450794,-51.8402214972427,-57.31011410042139,-53.6224312217779,-56.722774797399595,-59.68491910403913
0.6250406927534345,-48.41694347097985,-60.67844620548145,-56.66282565346343,-51.02650097209388,-49.13989743164497,-68.6558640388386,-48.77774679239467,-48.71193224052913,-33.88438641904843,-53.792032486007855,-54.91881818447275,-27.055892004357403,-60.48521751535036,-54.934445032661
0.6289471970831435,-29.555339333867355,-51.576193886399004,-54.56712446151916,-50.47417348027952,-25.351783866492973,-65.17252418856074,-37.374327394615634,-54.48114192493679,-25.36952411996934,-37.70996546456636,-50.70582687399002,-20.71985926904778,-60.023451031453455,-54.22599916383796
0.6328537014128525,-29.365224978844093,-46.18275015471688,-66.03993141190443,-46.57040186172744,-50.97507289098392,-65.43062848343332,-39.34592434798765,-36.744416336590476,-57.89708633887679,-30.896565768606784,-39.15534403585172,-15.41599472642477,-57.141265501145604,-43.424027619098034
0.6367602057425614,-19.155900970305463,-42.71465735705323,-48.1645254928837,-35.686353071599456,-29.654816080804103,-66.12629705299788,-38.88539114920438,-37.772039304040966,-14.744379398378099,-29.812541553704012,-36.45554545947098,2.128580129082872,-43.982873976366044,-40.49978849201177
0.6406667100722704,-14.881396554872337,-33.66621479944559,-48.70370195275009,-35.71533372008963,-28.859441756197995,-56.25265620966272,-21.146375905365087,-30.64087629330084,-8.34954948673565,-28.969253788524924,-31.654098601115685,-1.0722098289643571,-43.29838966464272,-41.69806096425824
0.6445732144019793,-14.304971142863014,-16.507286573399476,-42.89244979262499,-29.258813441453274,-27.85930848359472,-59.54842931866245,-20.4271185219662,-31.347185718581645,0.21591949221547624,-21.854232658778827,-25.94339532969687,2.514756637191806,-43.891683613097555,-35.836954389098565
0.6484797187316883,-6.474306249400591,-18.662883236542243,-41.30872612774509,-24.506565620233644,-19.438967810174017,-47.27137730116692,-0.8126740219980144,-19.35944475966284,5.718596297344124,-16.433241785660247,-17.25880968588151,9.506095344772167,-29.87176892698732,-30.686354542577845
0.6523862230613973,3.5889351673641605,-8.630211402570117,-27.356687265010688,-14.244993795241816,-11.73144444429932,-38.004152630886814,-2.786115982708622,-6.7074499394082565,15.219763666332412,-14.257767403464527,-1.8006454293312983,14.84186054008899,-34.44004291429368,-12.798662591713336
0.6562927273911062,7.2621474859581845,-6.792715161096424,-26.63220121345986,-6.210301864008214,1.6754262295023237,-32.20013833379468,10.376281275931264,-4.121532887373155,21.847485191662326,2.0698561997720644,1.9801230064468143,25.719208659727798,-24.660905303918707,-1.1730102971726097
0.6601992317208152,22.96079525806725,1.6804246924700434,-8.81993017923161,-7.4821854787255635,12.650969723093779,-40.293490701313026,25.818891801875097,1.1060760845467197,51.460731289539254,5.945173824848442,1.7269077111690385,38.2900184357851,-11.076202239381406,-0.9693704593925712
0.6641057360505241,33.64242414201783,17.308721458993404,-3.5204326670456845,14.654267860650542,17.35276958999435,-5.146562689631893,30.686430763985094,-14.955577160066856,51.041024596900606,10.229129247755738,21.35298527950778,44.42001126023666,-57.24904915827702,7.4533134552386935
0.6680122403802331,24.9275781791275,27.558281946976663,-2.1205708657822946,14.110688939027854,25.211776675006043,1.2351593953146076,32.05277817728597,30.051265653863826,54.06574778788399,37.71173430406065,32.63864243060036,50.69606106790406,-1.2279892817611717,21.733979178106125
0.6719187447099421,57.58985472658094,32.59061695777883,5.784921129046122,32.59335510736058,39.386041453960836,15.56003047459938,52.821205000936125,35.88897220708895,63.019357914637794,32.98147712048019,42.765076773012694,62.91327782786918,12.545179952611653,21.50402415560525
0.675825249039651,48.60466473238466,39.14223639648658,25.473867646847246,41.17834876898932,42.27600184858927,28.22442871652533,32.13984611075851,34.13581378834417,70.07491950029069,50.36424722254189,50.143263580646504,62.72202262736775,20.97239754788668,38.74990485782897
0.6797317533693601,54.05576983077036,45.52881236647865,38.27793047165732,50.454196048215444,59.333908348220284,37.98893634841104,64.07702188550165,62.077528238139024,84.65591878672558,57.24674848155157,52.01472760085652,71.41742527387187,35.632316328180785,52.497914936045504
0.683638257699069,61.22367636007877,65.64350937745081,46.166736015882584,66.47274095006539,66.5760010523749,53.91823674348812,78.25081665641007,65.14755260340173,86.40919764941478,63.122439371047605,64.10273627029473,89.46791992460219,42.721178801444125,69.31776650937393
0.687544762028778,76.47219367816922,71.76450723730589,55.009759034285324,77.00479064611508,72.09653315896782,67.2720501325179,83.17028162837534,69.7392295322006,84.00994527943328,75.60672586575627,72.34708580062272,84.9455643189146,40.26627636927532,83.68336630693953
0.691451266358487,74.57576332940833,82.76818416359775,65.53893097649495,76.91385598950237,89.09603933943305,76.20342953276402,90.76925130182421,75.61120560899555,87.47775481107337,86.81792214490264,82.03117734139059,95.8695114559628,69.29148899200015,84.630936258071
0.6953577706881959,83.24215395539076,84.0341377201637,44.06252123102224,85.74139244307426,88.72530051269656,85.73269138459972,92.04794360463563,67.72013514350596,95.44548818334327,93.59183971766957,80.2724850597381,95.46122620490995,67.75924321323672,86.93539898070291
0.6992642750179049,91.81940665584499,90.39102492402704,83.29527680642195,102.43714300678542,91.79052406347922,99.98927974120483,102.61363502004086,87.32793877087236,99.3577790294393,101.74296783753509,86.405935597804,95.97734694682099,80.78957778096718,96.94662613175664
0.7031707793476139,92.36466717788625,92.30706969487095,88.85875006785473,98.60888688306812,109.96610479078691,98.33508265391502,100.35944287407908,100.24773315050429,95.54918457182822,104.19822254983976,83.03385405114358,86.66868242971924,98.18107504309128,115.01132253736202
0.7070772836773228,97.2496351006896,99.37136994410145,94.37188342450602,98.30684956855359,95.78918205306594,94.54295149767785,112.50737167192018,99.85311942455657,100.78601110928014,104.8967406808687,82.1688763013246,91.75090961354384,91.57099764561535,103.41723443590307
0.7109837880070318,92.95527143791129,105.66655765753076,97.89000794838587,105.1612100267998,103.56707222529373,101.65438735456749,97.98742521951189,88.87669954427338,79.47696325126262,115.59508123412407,87.15180982816678,98.17686435794018,80.90426440704934,106.26409936892304
0.7148902923367407,86.14243297614331,94.97569083876894,99.50640731830403,102.21407940363548,104.13974975111523,96.06786412093695,87.41503607016345,92.6277185408797,80.44069784860238,99.78450631517919,85.91876664944962,119.96398914261385,106.47386449543788,94.86272735042523
0.7187967966664497,83.86130864228231,91.31961437127603,92.58519372094244,108.82510151344921,92.4586699786454,98.14993837645261,92.85810359783764,91.99039418600857,78.8350749257936,105.39097716679258,71.94245253468723,73.678584285287,96.33034619718221,94.357977353539
0.7227033009961586,80.9573663751437,87.77067068235515,91.16156568072088,83.06452569275157,82.00896672232616,85.24042163648929,82.23562979063752,90.27890435937351,62.77970679471963,92.4492567679103,71.01657234957666,71.72191169648828,91.93186597082443,83.5969074173052
0.7266098053258676,73.9740424222674,85.0293756409948,86.09850127511162,90.1667628474759,72.70969893500096,85.82296344460119,67.40085504329474,85.84252742936296,46.59521764526322,84.83860302184569,53.719426187886135,59.397587818135854,89.77146179578568,80.01987028374313
0.7305163096555766,69.79171199129273,72.89483004970653,81.28748062594106,73.3380337931577,63.189809950443816,70.5296836710073,55.61987050100394,73.56597712803445,41.86057186581695,80.93322772279883,39.9257267385531,51.83199791609329,92.92621310820265,73.28494462815668
0.7344228139852855,60.78551031674592,63.04283952933898,82.65630824034713,55.58692947605443,55.86112772460091,66.27645182580488,46.06802249208411,60.00488635701153,18.260036205278883,74.19031967288402,32.75474682968496,42.2925935656426,72.64943720578745,52.28850315595139
0.7383293183149945,49.61036233171107,33.67103651397843,60.063758346009195,53.201005899761306,35.61918655623398,51.353344401041745,33.505265992569946,46.37331242309832,11.70790642514242,56.81101273326586,33.42380572102958,22.05664789671246,70.21092867509184,36.13310875170024
0.7422358226447034,33.12348390250788,23.918073968923718,54.98608688719273,48.739992822356214,33.293824793724276,31.652103676390283,16.44856909504474,37.98825072086822,1.0077256574429503,34.79003094916178,9.46907938961012,9.357184752548537,56.24594967168469,35.23804491230503
0.7461423269744124,21.54772010431828,23.5042021116179,50.56096449365705,29.10634973990293,17.87889017275279,28.737773278729854,15.106080761243478,16.76161443775733,-8.02095747069409,28.727441092094235,8.374300876776644,-11.366605839544548,45.66579684658065,17.451121156031505
0.7500488313041214,15.472719368112934,14.01247908874934,33.11178762385563,9.453860078011866,-0.7189463366865159,20.25614104393523,-3.6210221560694285,13.053602460053614,-17.040066589023507,13.73376342597481,-6.097366408027343,-8.400646330172513,27.207854664003783,17.897623117451054
0.7539553356338304,3.8264304932382576,-3.4366402363869333,13.27490346502957,1.4833382972967897,-6.14469127105714,6.61932134840212,-15.638752073626277,0.6269483331502556,-32.827086375517425,0.33115950010056405,-13.423829575583028,-30.718947574778902,16.218139657080833,5.934731987564248
0.7578618399635394,-14.864305781103614,-17.909272504941647,14.151066654607448,-8.71278147242571,-10.018697220365485,1.639885722542206,-23.01000551086588,-3.1447657461991634,-34.988408936119924,-3.550490214434374,-25.843130501147126,-40.28997805930159,13.207096890876297,-19.572793933295422
0.7617683442932484,-23.206515030365136,-28.086499654088186,-1.7491017644767508,-19.0254407817406,-27.30609207122314,-5.48235811516952,-36.67160454337705,-22.24072906005737,-25.17115809075188,-22.599975451279565,-30.733983121631233,-42.81255690803779,3.4034036333966275,-23.267260494653954
0.7656748486229573,-31.47190469942866,-19.579123134462126,-11.1319289093083,-28.359015143180727,-37.158817219937134,-15.06765225712701,-52.32804271850604,-27.277088211506403,-42.69081312917661,-29.44941200368546,-34.80212305059176,-56.06921847626249,-2.9617147990157378,-26.238433207490235
0.7695813529526663,-35.916710046373574,-39.46038762235978,-21.236532921720883,-28.398466544454685,-38.47145917762968,-24.279076921858916,-55.794691602600174,-29.346198393693165,-51.4069670234726,-37.45112404426834,-25.532052412529666,-56.62217489624796,-19.620579859478642,-34.60484649625833
0.7734878572823752,-43.726918532273466,-41.890307533257655,-38.8132028581465,-43.90915072281896,-37.79246658243386,-22.645731266693073,-46.7333803838038,-31.570825529033293,-50.16096318506909,-48.954425083504084,-31.320224859836095,-56.852275747118156,-30.350995032044704,-35.623880298239406
0.7773943616120842,-38.27585222482456,-45.32449973802899,-30.701892642141544,-48.408644417957184,-30.514895778883037,-25.34645859387427,-39.147277088646995,-40.71308182203228,-36.34171319295628,-52.6355435998421,-36.22775196167059,-70.13488010466149,-27.530668234850886,-38.3126830813889
0.7813008659417932,-49.673618041223115,-44.118234766917354,-41.03115846582784,-48.81886762364222,-40.88304200306376,-17.80756509123154,-44.44197860225848,-32.04584269039422,-39.317262538846634,-51.662000418323316,-28.902228310028896,-57.63979197443976,-36.97893250205115,-35.49781702339093
0.7852073702715021,-48.90869073275974,-40.10348877053795,-39.221999873157856,-47.40407728612081,-35.93123335651085,-26.58740442904002,-42.43758610205242,-41.09003511615968,-37.679869395466866,-51.12045427896035,-26.32969336337665,-58.918036803517225,-32.66912644110631,-41.71058368575501
0.7891138746012111,-33.30260608363635,-41.55359081644896,-40.293653894350456,-42.17443092813245,-43.34523717267916,-29.73121965567551,-42.07605669604427,-33.0823262128199,-29.40371718670884,-50.972565260667764,-16.3499173453517,-55.84867978997929,-42.110971696402316,-35.52762264674323
0.79302037893092,-44.819556394549465,-40.49144306211166,-31.08984529746561,-31.61450246955534,-33.226073348838995,-33.16692943237861,-39.87704552411087,-33.79393211461025,-23.961416560870735,-47.579740152339056,-23.03070444703575,-44.68767533244595,-35.200444028836564,-35.5310835716949
0.796926883260629,-34.6324660159009,-25.88959178728093,-39.935066867381295,-44.00211372641007,-31.474235819532932,-15.960997876168705,-30.302888658635226,-32.47784795789087,-19.74898198193594,-46.58297251000512,-5.279804374791762,-40.082709662555104,-29.37125484687802,-27.195445114652873
0.800833387590338,-26.147220619529463,-14.015252081693536,-28.558887788034234,-25.090135478857018,-20.665231503032174,-9.638358578715902,-20.148678660340842,-36.527296905785235,-10.129102350100757,-38.0917491086474,5.8143520107675695,-37.27182506976402,-33.892278869268154,-25.413006991769684
0.8047398919200469,-27.893080440918606,-8.234133296764117,-22.632944684370685,-31.21510768718258,-13.794167921195132,-9.761801143661105,-16.080042767515508,-30.876954435646677,-0.3256836237758418,-34.00513948860183,9.066936913395136,-23.23706474458392,-15.883001743481895,-12.384677467543629
0.8086463962497559,-19.83380664609296,-3.5080874763968426,-15.162347538821717,-27.000677825554497,-8.6322479330887,-6.897902442659341,-15.264232718387415,-10.639989092749497,7.308923870822335,-34.4620222861406,24.266089821876324,-9.036262532788355,-23.963776841338184,-19.3488421459155
0.8125529005794648,-1.62691086055628,-15.225937840267077,-19.294519542326857,-11.850370049757718,-8.329356168696416,-2.7314160506821112,-13.002356105555132,-13.236416829456662,9.147277740234294,-23.58629378902597,18.482364384342628,-9.5071779779436,-5.610441725168226,-13.098912059502041
0.8164594049091738,4.124446230527535,0.9836563262305527,-5.511139225806073,-6.505401462255336,3.93446366446873,-10.717202645393531,-4.899571080711507,-8.606867284203533,17.031098325692614,-26.42052204146614,36.731175927296164,2.615928611856935,-4.793078358963662,-5.080734952653947
0.8203659092388828,8.015396391265854,5.596559876098208,-0.13877888567881924,-0.5212685732264353,9.069442428856366,4.382552205110748,-0.3985557607220125,2.1161553725387727,18.206011377566096,-19.443183997747855,38.24772307331016,2.214693286912139,-0.7067398826646398,4.171112262658926
0.8242724135685918,10.722829467251328,0.5348426720758663,12.648735084098355,-10.15832210122672,-4.947130038484915,8.849226682782426,1.4207491794998535,4.758883631272583,19.193091569082437,-23.593410382073777,39.83955470824133,6.4506371146827695,6.09763768811989,0.8515908077780872
0.8281789178983008,21.757884919090042,19.825263109877202,14.059216991245114,-2.7504340448761457,-1.998870306299791,7.817155667998473,3.7268676452528435,-4.355415299514268,21.454934224899937,-16.741984768524077,42.470514338172954,7.110199517925658,4.738089393598775,12.314175881856801
0.8320854222280097,9.96084037360255,22.65109961283949,3.296322658322662,-3.9354158428100945,11.628931828838706,3.1211096069750015,4.220764370518225,22.68443916787705,15.566995279909786,1.0148566226139049,38.6309516096834,5.315806943081143,12.897751832582323,6.203953173746009
0.8359919265577187,25.540546748045635,26.527284905883175,18.039961046514676,9.114166431386598,18.203683202542067,15.141890267555052,12.852812709408266,28.093898078748985,15.100706986465752,-8.37420168513461,38.485735573780346,10.97717993442608,9.93934866278591,8.20151958103842
0.8398984308874277,20.572791513036968,15.848809542042655,23.837555393289847,2.3959922706485637,16.402707428527336,16.24275637433939,4.493803162541557,26.759233088277682,18.356026354443138,4.145316881542007,35.531994474871624,12.827277600722933,22.319608717487284,15.16217852817973
0.8438049352171366,24.507038209355297,29.43252079687442,13.741923513833871,20.176651812902016,1.8241765059633668,15.282295849360109,7.959673625057546,23.360653116630512,18.4270632621066,6.596069826197313,39.636125522382905,8.380164914660163,29.281474875068483,11.521635309666856
0.8477114395468456,18.85065523341267,18.794290271795223,24.656511091552368,4.177399807385616,20.324031969384468,19.555557699718214,1.206460678354702,16.296369121743027,13.067555638703801,4.110590731717649,34.02226437919943,13.91416671862184,22.7915203718307,12.272257637452077
0.8516179438765545,23.882041898741953,17.08380752799883,16.088711009168016,8.557096577933251,13.284011452870462,16.52397532915386,20.714144018777993,23.46927981718278,11.511418094550457,6.454080498769441,18.463249298295523,5.076643128191954,20.9919363929372,4.8500434037369065
0.8555244482062635,20.937248435718175,20.584290208538185,8.990181126363934,10.754251069529548,25.804195497623397,10.391531844517226,1.5107996177236176,15.446507434730659,9.082870042587272,2.3461243578269952,19.405769058510035,5.6052962634827725,20.760794398459925,7.720931481060962
0.8594309525359725,6.579846048364405,21.96494221331021,10.71895789770766,9.733732228392629,5.954845883374869,16.391233287691833,5.131354673485235,18.492624060903523,-2.887580208180241,5.106509202934388,17.099688919882166,6.844910381131716,15.338778935975002,5.299181928701057
0.8633374568656814,8.570377493378029,15.805401285299595,17.493782559487755,-3.326711185081116,12.464693698198323,16.72165485375627,2.7436698709106735,4.114694319479092,32.29217368114343,2.4199022846439098,10.657205485602667,-17.29322362146099,20.745025035675255,15.9458595620443
0.8672439611953904,8.326132379332407,5.1486571062827,9.309918077048106,3.4121643176394394,12.473615236540393,7.4244192951793,-0.2315647857300578,5.997550558623596,-4.0905778264646235,-5.604245789306284,8.489141436636231,-6.9855172086832065,22.36834498679553,13.011108194597789
0.8711504655250993,-0.30473448202085684,6.561557255870497,8.361778717904555,-0.05829945380831614,0.49883991630042157,17.238148860691012,-0.38764039866988587,-0.5656563381429076,-5.503437850756889,-9.56440422389854,-1.6865591696424906,1.1655878182661885,19.446402784387764,6.545691510887671
0.8750569698548083,-4.217063520131369,1.9505230701315792,10.70316587613662,-3.602991165330497,3.0414183603124147,23.876611544460772,-7.612793623331817,2.2106401044270427,-9.719281938658797,0.6805821279588642,-6.815313848403991,-9.647011416713067,9.306171563354514,4.911074405138505
0.8789634741845173,-7.175546740874443,-0.48609344906816876,4.974217170494318,-0.015119856338296489,1.7189699218893426,14.628629831451669,-0.1799320917438183,-2.5272889651422785,-16.527121703552847,3.534829092887751,-3.792727826262076,-9.822088526885343,12.098661827472691,-0.8173436433950787
0.8828699785142262,-12.907327669382326,-10.999962767221596,6.574728067141709,-4.223704329285013,-9.696470397141459,19.42491493024093,-3.7947674038670938,-8.298360720224721,-25.49989265930339,-6.68301013020945,-17.22734252443736,-14.642413370794628,8.364077882964478,4.327091645417754
0.8867764828439352,-17.970621766452258,-8.85900042313911,-10.58702390945587,-8.50333235710313,-5.978057632004927,22.86210784040599,-6.904809801010474,-15.390455237550114,-36.971123237151374,-1.7297047403291188,-12.481264553668362,-82.00108511519807,-2.8571474325163266,-8.200578137053817
0.8906829871736441,-29.61826251966656,-12.301213751363555,-2.443305671758999,-8.67224603834597,-7.579145471441996,6.441101851033148,-19.921938662564862,-15.771692197448175,-33.44363941698595,-5.562414849916163,-30.68785935306922,-17.377695946549835,-0.12599674941617245,-0.020974778627214086
0.8945894915033532,-25.398399490702527,-12.635110618131371,-10.08289624815868,-11.276195798340954,-15.032178731062597,11.483693359500057,-11.399484358251414,-18.57431637097789,-33.775421925845016,-9.742815079354756,-20.151073329494878,-28.025962584591895,-15.282347391082581,-15.304880254047095
0.8984959958330622,-31.614665004563758,-18.867941166197987,-6.146777696711212,-11.91825131468677,-13.937654692099514,2.865567999111705,-21.89760381360856,-9.97187699046464,-35.174347323849545,-0.5801605786742492,-35.30162878403057,-29.42097974445348,-8.249486080427776,-7.1792898504888445
0.9024025001627711,-41.19690430811052,-34.66808982328959,-16.775856029432912,-17.55969689752814,-30.16936736101343,-12.40783165638622,-42.86972284220293,-22.540022515760523,-48.121735934651575,-3.2568058384718395,-36.78548190954002,-32.123542986464535,-16.35444629635639,-16.984734266549534
0.9063090044924801,-38.282200831971664,-33.26366733755606,-21.152849790372592,-17.13594903157053,-35.699860320417955,-19.72357440994789,-29.42760104622546,-32.90672991610956,-47.759952074654166,-15.302415874798653,-45.4548284153511,-28.582223316054744,-18.673516449771938,-22.88386325564104
0.910215508822189,-41.80410702467976,-41.742640739007314,-31.556636597623992,-34.114271091052906,-32.8510162226116,-17.152956828158587,-33.37268006191378,-37.9311178296086,-52.73544065085747,-16.897279379022102,-51.27395897210492,-33.5478960007396,-32.22593714664488,-24.306017954165604
0.914122013151898,-46.54283218923811,-41.87890791993964,-42.86671783026479,-25.399614944018715,-40.09213399094523,-30.573767885826786,-36.17991221249977,-42.49774656664492,-66.31906976825366,-31.088729634574,-49.162358649166876,-45.26957581693433,-29.317783780769542,-31.275022612678157
0.918028517481607,-42.617638866199684,-51.81011492862234,-34.67901986636687,-43.20170338141161,-53.40497372146743,-43.43466520134277,-44.241071189577,-40.28635839077841,-61.09078887000947,-32.77801410023441,-64.54334696545972,-41.95539316298073,-35.67436538982454,-45.626349979774226
0.9219350218113159,-48.98945409933089,-53.47665321245356,-45.16543716976151,-49.788675346948786,-53.83368623836259,-48.73063754093859,-53.8913712853985,-47.21224212684329,-66.7757575453117,-34.401588996371885,-71.2163016649488,-46.96500602257,-41.1531034798873,-56.44893887111928
0.9258415261410249,-52.567768779479884,-59.94063322634345,-55.366467269150306,-63.81918103685317,-45.989527014566164,-59.84435109323734,-57.22449432415101,-63.93138894012521,-74.41759790586991,-37.13388120847105,-78.93416718565858,-52.236869234308685,-55.71740563515051,-58.82715363691486
0.9297480304707338,-67.24419847535012,-61.23585691098606,-57.00625894707026,-56.61129679856179,-70.47924656799253,-75.2907175020955,-72.0897291888775,-56.71315110983123,-74.92294961971238,-50.278240328872194,-85.10808362601688,-50.546333444636886,-53.20468727982734,-63.23206423860476
0.9336545348004428,-64.41102175154532,-77.35605480673023,-61.770934254062,-70.20882692814276,-75.93204123894769,-69.45402374791549,-68.5925331123301,-71.07799438503571,-78.91457048784419,-56.52480640685833,-85.42262321477291,-61.1727036874331,-62.46009111364475,-66.27695275830317
0.9375610391301518,-67.60860029654978,-70.06486690229045,-63.32438465667903,-71.78231307257943,-61.348322521723816,-83.2450562938955,-75.78901076999064,-58.475009719013364,-79.36705078203774,-55.70690198791679,-89.03452256249548,-55.35607681998757,-60.33758429771434,-79.70980987664453
0.9414675434598607,-67.8769768138883,-79.00814100006922,-70.60770727119079,-73.10059597230465,-93.65116651772152,-77.79425925819807,-70.68160759817948,-70.89773594728831,-80.92825897285462,-63.18766940972854,-85.82815471703829,-53.12676628027861,-69.05862615117135,-77.06800883888809
0.9453740477895697,-76.65925487464992,-80.04275659899308,-80.20378250416003,-87.78926366304357,-82.22756054790537,-97.59113395227311,-76.6930938391837,-77.40188615849354,-73.55384779147444,-58.71211965184842,-83.18138168540663,-54.76790859260219,-84.94595590516995,-88.0501599352839
0.9492805521192786,-69.66184234483399,-84.7553876997546,-80.2078512627679,-83.17483976038136,-77.5938139545727,-95.62246097488742,-82.50757235079374,-79.78300454163326,-74.5981478425934,-68.21471435979696,-86.19239437955105,-56.598671254915,-92.96462111300445,-88.20374939457538
0.9531870564489876,-71.67939765689499,-81.83466155347789,-92.96818806533206,-74.82311874142844,-78.45874840748884,-99.57771449354375,-68.06344221171875,-78.28275168077374,-64.80184766130232,-67.2987483125331,-90.5823142002802,-57.34392707851674,-88.61488903633986,-89.46600001653452
0.9570935607786966,-70.18820720458191,-87.075729853733,-92.18964916741051,-79.76102704889855,-78.78532179591276,-103.53027135840622,-77.45204823732936,-72.43949201132413,-60.73295161849119,-70.28840321775844,-77.08617385072351,-52.91434595103535,-90.87269092827063,-88.8917403558663
0.9610000651084055,-62.39051711264366,-84.51995407610175,-82.0003264441708,-74.55504177863068,-78.97864293955429,-91.56409024153282,-58.005169097731965,-70.5862738299681,-53.15475342669103,-59.909483351775,-73.9128047869564,-49.262815147224075,-88.60365865353869,-86.69107887788185
0.9649065694381146,-59.469314516929785,-81.41990851216336,-86.58585306005223,-76.24613837564969,-66.03913818649643,-87.65548470410472,-61.29602501627103,-68.11200349787057,-40.28660506784949,-62.663994506287956,-70.63458194909138,-41.32065240888829,-91.3997855145052,-69.19300542691644
0.9688130737678236,-57.61159851949591,-71.18405155294226,-84.37497452815299,-57.61568573191302,-65.0841333586878,-78.8797231222514,-44.31370193356878,-58.393162768033534,-37.85455377142614,-51.813690296799635,-46.07866568370211,-32.23976444948602,-86.09095351758354,-57.504677156426716
0.9727195780975325,-46.14867223049378,-49.56272038821079,-66.87634016568624,-53.65354973949458,-51.66822124965473,-64.32766553477049,-42.14787850408137,-47.9979136761165,-17.66143206917287,-45.80611277842496,-40.111342742770965,-19.592298638324035,-77.57428192549628,-53.750545589979026
0.9766260824272415,-29.640268599271042,-55.73861846384249,-69.7016820487131,-41.98349118921345,-40.33129909320942,-63.716790881546686,-22.9665470030203,-44.940351844130866,-4.666151089827304,-39.46020862902023,-35.86679891349159,-11.378779123036669,-66.009644774848,-38.27611818238395
0.9805325867569504,-25.55958173028886,-37.02781874394922,-51.32668130185339,-41.1096719722544,-24.328643798747567,-48.25867272387306,-15.666810764481898,-38.63321892599912,7.962862002219882,-32.333126192826946,-18.061219822682148,-2.513463597571093,-56.81906384704417,-19.780248999077934
0.9844390910866594,-4.325294094164646,-17.8033106428389,-43.16850761071873,-19.451688251378012,-7.203919379100632,-37.40864687549822,10.499371404875841,-21.619580370879557,28.96203545241233,-15.551463156933789,-5.518233077827525,23.116818511514133,-50.97350367957348,-10.779885430084516
0.9883455954163683,-2.1058230921298993,-6.726938598904387,-21.140382824654296,-7.598108519685022,3.173115106399316,-11.069366341943425,30.522935695614144,1.1541268320154554,40.49663715980992,-0.5180622823372015,6.565839733335504,35.33942688131848,-42.773893351371456,1.7265530748310027
0.9922520997460773,21.948024842792613,9.875162966838092,-14.354449474641937,11.560938453675229,17.96594833275933,-8.75677023813272,29.489016288758897,16.980574283489606,50.197832256558684,9.817485602487478,26.596730389239056,50.49870067992286,-15.807828624655889,20.96381277200606
0.9961586040757863,24.88477401756775,12.87802944931314,5.609665876647753,26.8721146448658,38.97898250804515,13.352401247425155,40.583575029674726,28.65982805842833,56.56130126376438,30.486370279453645,29.166705793995863,58.219780108538856,-3.955474946283952,27.131921428272754
1.0000651084054952,38.566299703534185,40.78100913214272,28.038461195144542,45.904052253182435,39.07895237301641,26.36151983825205,60.74197979611338,39.37254818572897,83.09117838939275,36.64050309393003,51.98677670622176,80.62590054279788,11.794816094865036,40.643578683669446
1.0039716127352043,60.517800126827055,58.409450831043,40.96601569328287,62.650036585836396,59.1263622332732,43.46653090744763,81.05796828110407,55.67587754929475,85.54430054055872,53.94767782636772,58.735184115757434,75.93087621583223,29.884638924898393,53.32735079621676
1.0078781170649131,69.6135401575757,62.967740476137706,41.830497614471724,63.712519207659064,65.84894582559704,43.06636240813677,86.03365383900602,51.059879548333214,94.885997294794,62.769043883641835,63.986839123051915,83.26078590608574,44.921287316393276,65.21017988752627
1.0117846213946222,85.21368767300683,73.4238213668802,57.01643665099577,83.04731960100791,76.29914417828252,66.65765166279313,87.34572833067668,74.34482024833076,92.9720081905997,78.35892281545125,79.66390804018656,97.73215613347453,58.51762730174285,73.59750835723452
1.015691125724331,85.18100708611605,92.71593098103051,71.68825218148451,78.08975075102987,81.36379293906093,64.73056250335206,106.44101875464402,80.41594646177953,97.48975881690579,86.98016632105819,88.88674331032809,113.0888053519945,53.22799260361782,90.36162998017727
1.0195976300540401,106.32197761769373,84.65763747098924,79.9347691249725,86.32345032296021,91.53923338498872,72.01519477790127,102.10928220687231,85.56427542728764,97.92552857312587,82.96928721043732,87.81576561981592,104.18590122004758,74.29217704499744,97.667877341235
1.023504134383749,95.77776436889673,96.94142264943457,92.79035381001079,97.2258199137901,97.58458435459183,80.04059742046877,103.83729533015513,91.98502683235357,105.64252147355616,101.57900646221333,89.84575581498201,107.48082237026475,71.98418732574926,91.52462694984234
1.027410638713458,95.87484096382444,93.95883189824693,88.95236739674779,93.34498323036512,96.593328857354,70.59128905970755,104.87643429275751,98.07825722515324,93.73432620604613,102.3035470782496,88.52779535296101,98.33933991622162,86.31919575560788,90.8087142207676
1.031317143043167,101.86554659052496,103.58712518561646,85.13935021453901,98.65852843314603,89.62622279280465,77.1814882006442,101.50482789187372,102.34911266140708,85.47766888309813,106.10523953152754,84.19086572996935,99.81545672908592,97.10935600624757,87.97499376306607
1.035223647372876,100.81656235172329,93.55440690407808,96.93675675713655,101.43975917565386,94.93024578954062,85.96068332435217,89.41375752291992,95.95740583329157,85.76062854959557,100.67640572127004,81.07585369696253,91.89234513467638,91.20543192544675,95.51253486329516
1.0391301517025848,82.8018498804709,93.28728414140704,90.31566524336694,93.50635632403407,94.61097206435977,90.71007212117698,89.77882706566369,93.88554197760837,68.21352040411429,98.69495381086816,79.39978544780827,90.12559497193587,98.87830768892678,90.88806037506748
1.043036656032294,89.56041729449132,91.05286737168909,90.30501453098435,83.09782455582794,78.96338346022388,72.57635071123781,77.78922422156526,93.93925046718051,61.19340158613041,96.04104124177607,67.32578189746631,85.14391724357019,97.17992962502638,88.5553530731333
1.0469431603620027,89.01342037866847,71.10248944301094,85.60106830977254,73.96886106743958,82.5409322323847,68.09207848748034,73.04236509432387,79.34967395688052,56.351489814583964,90.90269725699318,61.51293757447709,62.336465662125086,95.85100411391173,75.5080238521751
1.0508496646917118,74.57543101569443,70.21515395696503,82.83351230428563,77.8195132813909,75.63619742694385,66.60191648164746,73.2861059938727,74.1496016618311,39.9303412562583,79.70832053182495,42.507025333164705,60.59228977242792,90.71437713282904,78.40844242647397
1.0547561690214207,72.9557398311606,55.521329092425844,79.77053655927928,66.64238391984512,68.37972785304623,56.47207102132211,58.65378624511802,69.45643269736038,34.54850237485702,77.84842211128128,41.59403422196658,48.62648934911803,77.49158330599558,68.173191425337
1.0586626733511297,57.02184422491403,57.27470080002172,68.93708870571646,55.0258505971393,47.50189180140913,56.57844988735583,49.45937825928035,56.567609337654034,31.8569784410097,64.1805596051216,30.025085994903918,17.028740077933083,62.17915480850547,60.83847872142751
1.0625691776808386,42.35661980082704,48.68293034704505,59.461303315609186,48.982742982505464,44.741746984734995,49.11628077030542,87.5434265871576,43.132751434635274,20.696013231803825,61.826314154663045,30.179899236496574,26.87359136378828,52.44256461138923,48.80140445110279
1.0664756820105477,32.14532181242605,36.99623526616348,40.412526224962015,37.61406699871266,34.766260906633754,47.1055356457645,35.441584750240914,39.90625616687035,6.941746811915454,40.05351963404195,12.01302797525496,22.275393500801485,46.30257631278969,36.06806733672137
1.0703821863402565,24.478191634896618,15.742309252378513,40.3436393444384,33.87938644281143,18.32684857170358,44.48380252826354,29.053242113257244,37.74650161118022,4.883952077630546,31.492817157061936,15.839770530168268,12.418953646257894,47.1451675321903,39.705664576215234
1.0742886906699656,9.78601924352504,19.275053150890674,27.325629249689,15.285629805973771,13.839151524043576,44.16984865930982,16.15627321566777,23.98022317474225,-6.295808996106784,26.337921433948242,7.282271401674826,6.449528497077823,42.057365802561435,35.23531491528785
1.0781951949996746,14.863800948259216,6.093756752130626,33.72880233936064,8.256078630909967,25.52332213981377,38.92085653693771,9.041261288833738,12.959873840644743,-11.17497200441694,15.640888357425816,11.560158395482347,-12.27592838799631,24.46254197914089,25.75365392930847
1.0821016993293835,2.9244054572837443,1.3498216649617092,12.894419479595351,19.40705979709185,16.082123791229634,36.66803003258913,-1.0487688344436776,7.0008495051478015,-6.8580648690690635,7.4170360841848115,-2.077735537246835,-15.71693781497266,27.77255522787805,17.447728314745742
1.0860082036590926,-12.501364191875382,3.5275431353545814,11.369991641428886,20.869057358994816,-4.087636797962815,28.303148792406468,6.822563288687705,0.16277073832474542,-8.428751335896735,5.399697304108962,0.6099086539007521,-19.398367065272524,17.24750154419859,14.22616517966572
1.0899147079888014,-8.905730244734787,13.012593420128233,17.035564509115023,2.664943223084283,-0.8577846638952176,21.137918498822515,0.5090338421529923,-2.835245171271512,-6.47055684690223,-1.1002408819146323,-16.388715456444743,-26.595100620924935,7.917184301278727,-0.7485289100248966
1.0938212123185105,-24.495764663849577,1.2981655271198047,3.4732226530406503,-4.950132219983438,-3.098558015778556,17.96024278251111,-7.578888610302515,-4.554674018148933,-20.682641982437815,-9.821032179895937,-14.455798345927532,-20.873227093717944,0.6352968911491415,0.5651865376772933
1.0977277166482193,-11.657715236070192,-8.012839486600818,-3.8214099497747283,-7.411812397044784,-9.759907908973467,15.350082772066504,-23.400320352075035,-7.8913066364816356,-18.53167783334587,-12.903077301737918,-3.3451659957971867,-24.722055309189265,-2.9360965952713123,-3.799488092040009
1.1016342209779284,-14.99450967139659,-13.107945817858418,-7.308701126402186,-12.849629438311872,-11.943043586344597,2.04254849135887,-23.94757442989106,-20.232127535935007,-18.156256916370964,-24.424123150510226,-10.879617794021042,-27.540033250969753,-4.084690145417183,-7.658064099041804
1.1055407253076373,-20.990354749702107,-15.113138991988716,-4.507844643013729,-15.046753618959523,-13.155108921860032,6.056885058376219,-15.53009284267856,-8.37310171181011,-27.10853274119974,-20.158623224613404,-16.03993357541333,-26.78570805770547,2.4134558458825905,0.3937529088078957
1.1094472296373463,-25.335061448996964,-12.941497392155696,-6.9550894984607,-20.196446777954517,-4.033153346546669,-7.466756802421235,-14.272769342934026,-22.838686235639884,-18.066372226571175,-22.097079165218794,-14.146216011385498,-34.44744135065263,-4.172928165521508,-11.873230387016658
1.1133537339670552,-26.380595562199513,-12.654293490106738,-14.098034263968813,-18.299900525855055,-13.911907431048515,-18.766459303294447,-26.51714838483705,-20.81780624506641,-15.044635690126546,-24.96591337226751,-4.21137382286585,-33.76524485673289,-14.454863039639104,-16.95334951534449
1.1172602382967642,-21.86213448558222,-17.62490323028963,-11.496995759280738,-26.40517586114692,-17.857320227842454,-12.392792463870077,-33.12383920968243,-15.266285706437584,-22.922610969058177,-30.748414360497957,-6.4552561405090145,-37.40979252244652,-8.111763801817288,-15.881785905084772
1.121166742626473,-27.024200145119096,-10.309238919785845,-7.390148100424925,-31.850425555906597,-19.0924610534368,-14.13002780561549,-21.81349899976083,-21.393558621175842,-12.85768090784291,-36.552933901888835,-7.877008164294219,-40.845639584305886,-16.354015419401545,-30.370641376971435
1.1250732469561822,-24.19359889974483,-17.548379348818514,-16.960342701559192,-34.42535386595195,-20.53341331064747,-18.79644367345708,-17.87215323677813,-28.594943833437313,-15.769053492733946,-29.68012730006165,-2.466517020140347,-38.09344447631821,-10.990849843066272,-34.40084809476855
1.128979751285891,-21.973528754404214,-17.650156241052038,-15.563278657932102,-18.282466573763056,-20.115062459997816,-25.897603816209468,-39.84812224290009,-15.928268323551565,-21.322500189305757,-26.63457036482759,-4.489156996044088,-33.5583892553901,-18.239982733512207,-22.57860827221301
1.1328862556156,-21.540042235040907,-19.047767964324937,-25.440199532152434,-37.780243092893606,-31.259628465035615,-20.878584940363066,-27.158663490740018,-28.691711720025744,-13.83801641981458,-43.528620124898865,-2.610461234582136,-37.764990934137174,-10.715224801954424,-36.88407397515853
1.136792759945309,-17.903348783600322,-12.238528049265943,-16.675165551920653,-29.479624362857237,-24.824054636181152,-15.332570847687487,-32.117650508066454,-17.372454692373953,-11.079759750930076,-45.10568008145044,-1.423406886114555,-22.208282635366146,-22.573756546678748,-26.96773490464468
1.140699264275018,-24.792045240992255,-12.605380651774373,-18.839643972968336,-33.33776993265226,-30.2430410054158,-23.65642078753241,-37.11951342806138,-20.398655023862972,-20.118087788908785,-51.44617773630249,0.07174724549452094,-32.29402892624069,-14.31095206477487,-32.266453722863794
1.144605768604727,-6.3802189976363834,-11.773264379791385,-21.427486585042548,-35.4364942689066,-28.255512058059836,-27.737225295692177,-32.236166077488214,-15.684064319634393,-17.95608949830646,-41.85806100171509,9.059459507357616,-30.754961857708917,-21.134629731553858,-37.85931810356861
1.148512272934436,-10.529320939985686,-13.410143121902975,-20.074692476577674,-40.46172975923443,-23.208755407651537,-19.354594193261093,-26.135016526699328,-22.79263636871149,-16.616104233199714,-40.76602088979278,6.469893041850736,-37.23632233816094,-15.437310776412467,-32.677545401160884
1.152418777264145,-11.509605961152243,-14.714633115473983,-27.062581709672195,-29.9499509750279,-29.60548050891748,-18.798796506196,-26.976907989246826,-13.219802483255307,-7.124036565383273,-40.37994917044257,6.445694091259506,-22.53562548948076,-15.138349838639959,-30.772606522491756
1.1563252815938538,-19.26330920342754,-13.916589737931297,-20.296435180206068,-23.87465675649005,-15.689101472113117,-13.252383309900294,-25.390788496846696,-20.549662426109208,-3.9599827459973733,-29.207134401137044,8.494185544052453,-17.027686765836027,-23.890545596508723,-28.455644973838403
1.160231785923563,-5.30377210887663,-11.856450236873531,-9.831324217653522,-29.2508206353814,-18.90196984920188,-16.49316510383625,-19.95300138914036,-14.693419032117149,-8.929120591959938,-34.786329204093356,11.2706339258709,-28.171876568104423,-60.34802459676213,-30.87512773537293
1.1641382902532718,-11.405526495212495,1.7879903332365252,-2.7808759727442887,-15.289873418883637,-11.040692625955085,-8.874940030604067,-16.533386762734615,-5.3580642873506,3.517874432531041,-27.186825782340996,14.356810752412574,-10.91137489921429,-10.597642000802086,-20.53675225125884
1.1680447945829808,4.015671821629862,-6.675367961263984,-5.173741852010707,-22.419326966456826,-5.5409742264512225,-1.0587160362987862,-8.608694900085846,7.630549982181792,0.5184259276676446,-17.924178391679636,15.863512825589076,-10.41875062654056,-17.81545287997595,-4.271241203549306
1.1719512989126897,-6.330481320375696,-4.011387955515663,-2.570836062185013,-20.96364227802551,-11.926961151203455,5.432214648640663,-0.7008556687779892,-6.849089914844354,2.002179546305637,-16.997793371244452,24.7986501450995,-15.477456680424535,3.745793810424974,-0.9651582726119252
1.1758578032423987,4.971853548236117,8.410017283354367,-3.069252874533231,-1.1615887363104775,3.4463245251974994,11.366701866351757,-4.43099831040065,3.32728687762062,8.768093287269554,-16.547544440055677,15.86522185612435,-7.182922535360783,6.197120447063507,6.074019083657035
1.1797643075721076,11.980361979679135,10.87637192799819,-2.768104807275833,-3.422695486118828,12.663027284673086,13.694596607668277,2.2473656921079597,7.193389378662208,19.9247658371187,-5.03911769962188,33.117046414441425,2.473642035238762,7.113891859079284,5.597454999924157
1.1836708119018167,9.900026488520322,10.86796795336808,6.586444131556413,8.98467995443052,24.886623613700586,34.91377677351582,8.705192590411365,13.42864570499681,25.653347105557486,-9.09546955733739,22.8702888458493,10.192592822207422,16.960914729633934,16.289401493566668
1.1875773162315255,17.07281943652592,24.709546451989112,21.023032237908133,14.0892632692669,16.709810170651064,22.823241062840264,20.323054783925716,17.48657045994596,24.552373969473646,2.135164407288595,33.32288412049285,8.566059185566925,18.24235157730714,25.13232997857859
1.1914838205612346,20.964466706902314,28.662133707440656,22.804476638212478,17.048591755211177,27.87922686508599,34.00713956808999,18.41275376851707,23.268969894431518,27.656026977011475,13.687103995962705,30.567901439944574,15.140739310034284,17.985485426886914,27.682703564437496
1.1953903248909434,26.88368054109948,28.16887344563464,21.91049376537208,13.734733165885633,29.28698989747032,42.625043959843076,23.49187803847031,18.235719147730393,26.84839189829637,23.89223690775315,27.578285383034263,18.1855934576062,33.2983958065781,30.054519429758265
1.1992968292206525,22.803710431863852,33.08294416717281,31.271127286174142,30.228442300364637,25.44053113619616,44.40149900121524,24.198394406455837,21.558437924410615,17.547408748638688,21.179356582709655,29.447975836868014,21.325507228283485,30.45386272976676,28.850329088340043
1.2032033335503614,23.514394579330787,30.150559326421416,30.31991916508869,35.44997757339174,30.881588899499548,47.92493225420991,22.496058885858645,20.712021568337658,19.032390919530467,28.94649927510823,29.55256666967408,17.41269994470869,36.97663885824804,30.87497827664911
1.2071098378800704,20.973211677696117,20.90080988434727,35.49107804729333,30.92462561271326,23.58907646662204,41.36309472114217,25.615907522750483,24.488030105044736,11.432230710683807,24.958877803629573,20.46842939307038,18.67280728699148,18.263449242010225,39.53510958486713
1.2110163422097793,15.404533053030558,16.167874943041692,34.01685742839095,22.215092546495697,22.613055163904704,41.55446415389895,31.825559495794188,22.959790012888682,7.246095658109342,23.706538463024962,20.764901132137418,13.67808291648802,29.147552348512455,32.24993547584305
1.2149228465394883,20.47463647022921,20.990130604818958,29.757763101853556,25.003146403530415,18.586000440364217,31.850934566076333,10.700532051442478,16.18727770947961,0.7027116652532914,17.921963616221227,4.978389508712738,8.293053230439419,33.77475519012818,28.482995804234278
1.2188293508691974,10.032820707635691,12.095609315991345,28.241958978346506,21.40122170926347,16.924850374995046,21.2893341631919,1.8414953617702778,18.342294285107602,-11.152501590914758,22.366537066783714,5.516234123968524,13.863602797021729,22.245585693085975,18.04299134274642
1.2227358551989063,5.660042061676123,9.423670642605694,41.44592400768432,12.0943626717133,1.095755184734088,15.505944402361278,-7.352948686784747,13.286960795658414,-12.744422667759569,17.090502066683694,-12.210341693327983,-1.4631135934074868,25.50383464558937,12.959387164439988
1.2266423595286153,-9.376334401819197,9.393565849361433,10.721729755678181,4.2608752694651155,-9.861189198629823,15.261517434367565,-10.686745801576883,3.7734006015534307,-29.78124404757763,8.670833761591258,-18.286026346608754,-7.53248383130145,11.788346971747078,8.268204267241547
1.2305488638583242,-14.815470911243205,-14.900436156393368,-4.779943847365335,-14.134295738609534,-8.125091301818676,-10.35541883293702,-29.26796059946056,-11.902439905067176,-41.782862766736635,-3.9590840362663062,-26.98924247398323,-14.564721831629413,1.0238065917546981,-18.34814307437158
1.2344553681880333,-20.290623624023564,-26.9609034928058,-8.796450751374152,-16.043219329300975,-30.094319554212994,-16.52695069470738,-30.259111959393138,-14.612909804730062,-51.22672893044665,-18.99691844067851,-37.2941196791196,-19.832634669405273,-10.822756638671619,-14.210227769553446
1.238361872517742,-39.30680530301646,-37.68190486601121,-21.368234001466483,-28.016778422199344,-33.646697709531104,-21.611588959310147,-35.36223372974113,-28.72065630475458,-63.98092290381659,-20.76592261222426,-54.432788543941726,-40.93799805649388,-15.621776984013705,-29.683211821481237
1.2422683768474512,-47.61546734603193,-42.19459064123045,-26.899352618884876,-31.4151857138459,-35.82248048858635,-42.63866283259258,-53.66147547854244,-47.6567250354377,-68.37576652373163,-34.959511929054585,-65.76700588391468,-47.707347641722194,-25.35447503790674,-44.262103863711296
1.24617488117716,-57.67264434122368,-51.40945000159012,-36.68647449176112,-47.47608393069418,-54.050521268286175,-46.64123840629899,-60.79844158202039,-59.855820875579035,-72.36458428883786,-37.45904456686964,-76.2778632159816,-59.69649240396919,-33.383643411205625,-56.12668201633256
1.250081385506869,-65.87948507308981,-66.11394957996289,-44.68006225828006,-67.45024014178466,-69.72955727302265,-64.33318812599401,-75.26061272655907,-58.83390784962281,-88.07452702974838,-44.466764985604584,-82.5872196055915,-67.02392999972398,-45.17308021393236,-63.09187926899188
1.253987889836578,-82.45437628633219,-80.41870711317213,-56.851127858504185,-70.6101596701862,-76.82020770475941,-71.71908049987572,-80.31941935545862,-67.27488650914455,-93.62059170528819,-57.88374983265075,-94.1236382904504,-69.55733285504499,-54.080111089410224,-74.46207192483972
1.257894394166287,-70.8961439431246,-83.12836596173062,-80.18864344223024,-76.32652536683142,-93.78848195990105,-81.94477287703039,-86.12589982060362,-85.43147179845525,-91.2716766591886,-54.66166140699524,-100.1747829229666,-85.86415599106144,-60.836489643659135,-79.1224572488892
1.2618008984959959,-87.25616447890843,-85.8556080903124,-87.60007045447784,-73.03088251753047,-88.27538320841693,-76.96409041201679,-86.51499605460748,-91.55714893235908,-95.50237661380665,-71.66910258386775,-101.1854917106819,-83.19826196745646,-71.22174398552977,-85.70747430855202
1.265707402825705,-89.43651275039305,-89.70837335156506,-88.32320311184127,-78.21484291503666,-98.13582111296283,-85.69856580048747,-92.92898460721896,-86.80461433723367,-92.69366361053119,-70.3167221901233,-105.79337485982532,-70.06768158682347,-82.95479087440266,-90.56358755606514
1.2696139071554138,-98.14384130483198,-100.36230649791162,-89.9069779068593,-98.7189002299457,-87.81732661763132,-93.33271544452225,-86.48225058013654,-91.65676648204796,-95.76140645489718,-80.08261749424521,-105.06086566048505,-80.69047870289096,-84.7164132775502,-84.4149626672754
1.2735204114851228,-86.149093382967,-102.39933080026913,-90.34936254174892,-90.90225548220153,-88.80748436806493,-92.87756226648105,-85.35743818718113,-120.37218401480187,-87.59061122677599,-79.36284341462117,-102.08153525828598,-89.19629231384005,-97.8067542572046,-90.21037252452676
1.2774269158148317,-81.06237745293896,-90.08549467703972,-99.9210464011541,-87.85222227506365,-89.59718912682942,-81.12090853944213,-85.0418446113919,-98.59512880271964,-81.03693972491756,-76.80756572666421,-96.21258439558784,-70.67669853498484,-93.49631713291076,-85.19083326110768
1.2813334201445408,-78.95683909090084,-95.71507201877778,-88.69259118119561,-78.67536593471368,-79.50397399784929,-85.55019181158559,-77.31427905237973,-92.9208887595725,-64.78978189659422,-79.60914565924286,-91.58207159587221,-67.38422314164721,-105.90445968873081,-79.4495908815934
1.2852399244742496,-78.60961091725616,-80.54849259852043,-86.9763524482788,-72.08795098779633,-73.53321018041798,-86.19607377057099,-61.9976008302111,-83.76994102960873,-58.43696728295875,-67.42516606628591,-92.9457802118002,-60.34319539278884,-95.85133738323682,-74.46150484629761
1.2891464288039587,-75.27606456971924,-87.45339938923198,-93.29022668865805,-77.87880296898602,-62.96479268687782,-77.53122061085914,-53.371166744936204,-80.26315046327981,-47.245810984192914,-68.15129522117444,-78.47017894222483,-50.32118909891144,-89.33903986573588,-62.60272418287908
1.2930529331336678,-60.467019919752296,-70.98930476192459,-82.51037226495197,-64.61169735687835,-62.49982908733928,-65.8377593548457,-53.22064608350654,-64.21397963487014,-37.956175916910624,-51.58432114442108,-70.42665982555324,-37.656970269576185,-86.94962307845456,-50.80079770764855
1.2969594374633766,-44.35686685829497,-56.44963380980183,-77.18490451468553,-45.02868610208648,-48.74460772714256,-71.28840546467944,-52.37400904537658,-64.72375388578492,-24.545379523569355,-48.97702763993804,-47.24861945482901,-27.304829990724723,-75.4425249435958,-53.27500641502738
1.3008659417930857,-41.23671006117864,-35.88404726528182,-58.3843815069442,-33.16285411332957,-38.108790166325946,-52.15489327800093,-20.650450055891305,-46.65493719308593,-9.080966754133835,-52.655780948951005,-43.573379729964124,-13.670485009618865,-73.7419774222986,-38.87630337716596
1.3047724461227945,-24.871901710044142,-24.544531687604938,-55.31359720859982,-24.13095928048135,-23.346537409058847,-48.85349590431934,-10.206855993004952,-35.12688654700019,5.341419737485998,-26.392366780793814,-27.733442265675798,-4.75727757838751,-60.970388810524554,-30.063578865937444
1.3086789504525036,-13.931551481601076,-23.91645531605557,-35.70828876533888,-24.414362016725928,-13.821345208400976,-38.86519198367691,-1.5748068446224477,-27.14173147321804,12.860633498540832,-25.5529825375672,-1.1495368918913993,20.488991877790983,-48.48694026099894,-16.415834090155972
1.3125854547822124,-3.269861915208293,-3.1182442095704817,-26.078143443208333,0.27226226599419157,-7.405795860770168,-33.53597703624858,12.324090100122152,-12.946646714112404,24.9851762939945,-9.235331630697601,4.698142698080688,22.415459123435895,-40.67802069998727,-10.108560469594291
1.3164919591119215,12.44845971903793,7.069164233437036,-11.130573897924222,-3.2039447639901644,1.3764935497621797,-12.010395306148741,20.856736201426298,1.873260202829358,44.35917650168358,5.594473957396731,15.397826296353458,41.304294000463,-23.37874544940509,-6.796854866629564
1.3203984634416304,23.869540643540915,10.511098594638772,-6.369734563049995,21.574428621491688,19.789078539126063,-9.353316453560069,26.77316442465815,8.095438474561853,38.03009426675932,19.745271953174104,22.157776506845398,48.57727591167876,-12.824484741848327,12.208389439468084
1.3243049677713394,36.107051761359536,23.234122101516913,5.268300695311109,21.058128088374833,28.202469467450538,-3.0737362944689295,31.750041564071086,22.92651082956489,46.67579371304141,26.33193198853219,26.285169481428692,47.774155375200095,0.4847228201410401,17.73634898515103
1.3282114721010483,48.62307631710039,33.27430829089646,13.35759239629807,26.77616623139463,33.12789415507712,1.5771385799376851,47.99981011269446,37.96874440380555,54.06048591111245,31.84572730689852,45.77881606102503,65.64850596844688,9.446975279716856,30.08002848165944
1.3321179764307574,57.20078010645659,48.648106846010926,15.984617346008804,43.681167949547245,37.8935346286641,14.153677834561472,54.5660365388802,45.213452969919,61.54508707261435,49.80177185076547,52.877115371158105,63.533588589468216,25.10008364916515,48.45126050582573
1.3360244807604662,64.08999546831124,49.04519446085085,34.98818514654899,48.29796731844459,54.94729416634887,16.851147096789333,62.25300457262483,50.36946485417492,66.17237444344191,52.07667389532944,47.497275275523116,76.18142530072878,29.919074047166312,40.89064461886909
1.3399309850901753,67.46921700026638,50.696941466420334,45.5002516964122,42.04912922008919,58.92308981885889,32.19339895260445,58.84984122259714,53.821161146129604,68.04582846014135,58.69397137632535,52.43656541500286,68.21464424586172,44.726161005279316,56.792480011461144
1.3438374894198841,74.25036632357687,59.94212884950095,58.3182150396375,53.211518999689496,62.98526585699684,30.741952062673235,68.72135430203738,63.86062949708754,80.50002840438336,62.54995214232,56.593730368606266,79.13196135400229,41.36222516521271,30.182367147012133
1.3477439937495932,75.90705410468577,67.8834494566346,57.362710478263914,54.515801398760175,73.20432097394534,38.42692471906074,69.64380531087282,68.93982673649964,83.1677426635356,72.80812708484594,67.55341382901108,83.83628940694865,45.544906561058546,58.037977007368134
1.351650498079302,79.86715278868053,68.63694395470456,51.89727038491655,52.110340131613704,77.11410528824281,42.10972694619711,71.33284064482879,73.09597780822617,78.68878355070147,70.90098315981034,58.06694645502368,95.74238339080217,51.65091748492228,70.6328355468893
1.3555570024090111,74.26560791721653,71.48190669244386,54.306182156011666,67.40633867218989,68.97023652985303,58.3661183731921,78.48486348203306,73.82509623299688,79.39546152738242,113.99084317646202,63.24429434875921,72.64710267481266,59.95531011820788,76.52632861220775
1.3594635067387202,76.59429058099974,75.52727611773743,65.31795291489082,66.9732903763745,75.66838279820689,48.61314361376231,75.19468359290555,81.7918161999369,78.29300045578483,83.93159655533556,60.31124774527924,89.73508191077083,69.13076677440824,62.41088541924707
1.363370011068429,79.1186022665766,73.53674014055814,66.5474825134817,67.01088822115554,75.32520103040724,68.129724053272,78.64130868976329,72.75216498704275,76.33207387986049,72.96379831802633,60.71997945849605,77.6357327940813,61.77251508114577,74.58116826325087
1.367276515398138,68.09391717921697,68.90168892441778,72.52247199647209,68.2069726362921,75.1399944868978,71.07629277661216,69.81881505608062,76.44957705253009,76.55763903948188,79.71845325582123,61.85344765549792,78.59826723020674,74.5569638038469,64.8051588619708
1.371183019727847,74.11869548650354,75.08401000999537,85.27217274516285,75.33396814924211,78.51782707032778,74.56192484830933,79.2355974906176,73.36070571992477,69.82650357240178,84.42782317215614,64.86202030844233,67.19688729945042,69.56103009760598,79.47293924126504
1.375089524057556,78.37760808989772,69.77632966113379,70.50142394213151,79.0772057970964,73.67021476529605,65.4986386718809,63.51404068499522,76.26433978275004,63.63498737940548,78.13058529637024,55.90151307764918,62.59141379967895,64.64871150608245,77.1289664984252
1.3789960283872649,73.74358995189269,76.3041550441304,68.25741960636901,79.1067320068056,76.77553938986503,82.37788410323837,74.3711276195279,70.24784791658354,63.27846979707693,83.76702835484666,54.990710001329035,63.37328410000983,74.0464410023943,84.20379767867236
1.382902532716974,65.45179176735239,69.31835655221631,77.32307872149418,79.1241500956113,67.62688086838303,82.93592876536185,73.46492702220606,68.05940542355015,51.97726070908493,67.1233785537286,51.68401908425108,62.57602908398614,70.95880268254139,87.41553441949637
1.3868090370466828,60.95882743252392,63.894567833731486,79.1151411740086,84.6988870803956,79.69378549999955,79.76898337805515,64.88915082306187,68.53872659152321,58.470689016414106,78.56488236898797,48.04232247227034,61.801470359177046,75.60086553251858,69.8466583154984
1.3907155413763919,68.40693719925201,67.02117476121757,65.9098713559224,69.21846865333694,62.51710104889946,77.84545582221818,66.96377085533528,57.907808660318864,51.11063202748703,74.43492637637853,48.982305809273235,54.67669847852111,82.14880367239189,69.81141582625581
1.3946220457061007,48.67885065895821,101.0532758508452,65.46101722675736,87.95131988895547,73.2406160189356,73.1123950665216,62.24202598820031,51.87182699810315,44.14379532733601,69.6668355874758,53.56377131486613,50.31527215825584,72.12919803122816,66.33699119041188
1.3985285500358098,42.219925486993425,60.77876101327522,60.766698288770584,66.42956504883446,60.80691226754993,78.13775026054701,59.69530669906347,52.01282753992037,35.50542195000667,67.64785543717113,58.129847947483725,51.454463096130326,65.2131320566721,60.841679671086965
1.4024350543655186,44.231719639488865,54.90890108716524,63.045905954230676,68.16847087845413,56.0029364770787,70.24130696335634,55.92487841744842,60.371179958737336,37.580347667950086,56.33705144802603,40.03012922267989,43.83827656166491,60.77094934213675,64.82637370784224
1.4063415586952277,49.29928875913391,43.64396455903308,63.816248290227314,54.58121880739642,54.07035215574027,70.2205174443796,38.232195749397505,49.601969760023366,24.611156896606733,44.18564418110052,35.62161863718851,35.31899418916797,57.724297383655745,57.64722486205987
1.4102480630249365,39.60438488989931,30.228493434321138,48.029705300699575,53.314522053832505,46.02413879734303,51.92765310603939,33.53405453787851,53.458711670375585,13.45361367676592,47.872582914941916,29.81538081070931,16.311773074694166,55.9507324644478,48.34517727637718
1.4141545673546456,31.403765320217712,27.172973307929126,56.898727409717,40.654626772504535,30.4106382869998,48.08326142066252,36.228749793209914,37.66622033771217,10.73196785752867,35.245574206646765,20.248595088297215,20.672531473901245,49.697212510301355,36.37319355249734
1.4180610716843545,18.223119648013494,29.93667561001224,36.72718625314606,28.764626210593534,28.199970031675182,33.25729118398218,20.47657337202176,30.752680957320383,7.580351692184816,36.949460455697555,21.890532109794215,-0.10657973804411736,48.55987506019105,27.613311537749848
1.4219675760140635,10.501272259392593,25.1325035261265,30.0281360793418,33.37881045168677,19.850543431414117,32.27304911289479,11.410641213357167,24.225569920414785,0.02332424586032289,21.44015376914723,12.915673584409305,-3.327933230525325,28.42069210918034,12.38761803042869
1.4258740803437724,-5.952568809116373,10.783234035428102,25.052771064805953,9.99343439407383,8.2152200231275,21.541613265334334,1.5936802147678026,13.299378324079974,-13.919868342245504,7.904838275879264,2.598353758365434,-11.760958316071331,28.813125145060063,13.074998615751365
1.4297805846734815,-6.004401708750453,7.625576677622398,14.59101634669599,-3.7174805173126018,4.554334733121851,0.6001342086480363,-9.471205946179373,2.700884590096059,-14.116473780740437,-3.878988716876984,-2.0150097601228447,-18.674570195075418,12.8183128778332,5.917093776532736
1.4336870890031905,-12.208592103176018,-8.849463902753604,8.089604182059123,-11.028746914545865,-13.629022585598207,-13.468987323109296,-32.71882917284034,-5.394141070201329,-30.09851030885363,-6.036592702719391,-11.035221753890262,-25.86761474860802,0.7438213399656473,-16.475423112951123
1.4375935933328994,-30.239072821273318,-15.790566702350265,-1.4220291438392914,-12.799229975618127,-16.69324725714243,-5.624640944615034,-23.06996184155789,-19.82431295517911,-35.3836807062289,-14.997881917697107,-14.73201156658249,-39.89090784477547,8.9579412261249,-16.388989734376025
1.4415000976626084,-18.956743077687197,-27.62909779725065,-13.756404362490215,-30.62612760601904,-32.87824881406552,-21.12748813542408,-46.99956961925223,-20.835170164669158,-44.28107444566516,-33.032769210179346,-26.31926852847378,-46.60782571084122,0.6649209343733657,-24.133367077031778
1.4454066019923173,-24.94666784036813,-30.770269812861734,-16.655628869627154,-29.715407266538897,-37.49022539531327,-31.816650332241522,-42.23791543714646,-24.42589262227242,-43.81647298289725,-45.6439223891113,-24.701899190060754,-55.11457156751779,-16.182130604160346,-36.908910024188
1.4493131063220264,-44.022668765648724,-30.35685546228947,-25.62838287671858,-44.18568246579535,-43.50758513637457,-37.26075786307621,-40.61582210779481,-36.92031120509986,-41.641317872068456,-55.165581157476886,-19.418178693926208,-55.60890295272132,-18.44807090104323,-45.86204373380961
1.4532196106517352,-38.716014056204564,-38.85621663354186,-34.57471007584977,-58.30122831847801,-45.1921180571207,-44.29138792360237,-53.51627971446963,-49.67746560072733,-48.56537159425697,-51.980918283599884,-30.43403166041606,-62.54620489499937,-20.42493593971782,-60.80322094120048
1.4571261149814443,-35.61764957227478,-44.678929510490654,-36.936361661512024,-47.81923272919727,-49.8050057554799,-45.497095382809526,-51.057761496397184,-40.81467090354246,-48.16742047410856,-52.285580263227516,-24.9359254218407,-56.082244143752746,-37.1474396252362,-51.19606326578652
1.4610326193111531,-44.92315226230478,-46.195487287408206,-46.05084304706321,-58.77116337364278,-48.61520001762588,-43.82466025084097,-62.869571160594944,-49.13152081584719,-45.43828199768277,-65.2979263036957,-28.539353373569035,-57.334833362290745,-33.51585062008124,-41.70088398297517
1.4649391236408622,-50.99212296851076,-42.56417406541141,-33.18800824956966,-54.96102753043212,-47.94186560546841,-33.91631487417371,-55.23149949808051,-49.96335461458675,-38.37826672735456,-59.30326059733316,-23.078970292949755,-63.30687816962736,-43.533849920031834,-49.147211359014605
1.468845627970571,-43.48633172089665,-38.46135731210364,-42.20618591589862,-57.493718475488706,-46.34066589425579,-34.86197342886159,-45.08423813186831,-42.98052033495979,-33.83574937391707,-63.97790175683736,-21.99689747795659,-55.548501945573804,-48.54741627442003,-53.82731021625602
1.4727521323002801,-40.51515952111391,-37.595667714341936,-47.908951841630085,-48.29146897511577,-41.50578556642792,-30.852894380720883,-43.629051675984115,-51.449192651284925,-24.433916623258202,-63.767151730719725,-22.067655731678727,-50.04325489650887,-37.75312633488262,-50.75161529900618
1.476658636629989,-41.244515774272195,-30.276683451769145,-49.64340937136548,-33.43042895472268,-32.53121918572462,-31.369188570167033,-39.07204679226215,-42.92798426136896,-17.76020359330824,-56.89972592585299,-4.354953883714087,-38.53755192654988,-43.861073411004135,-43.46431981997975
1.480565140959698,-35.712959238386354,-26.803474859226014,-31.32093630393679,-37.29665053718105,-34.240158707435725,-23.98206463635372,-15.974063631596147,-36.198848382659406,-1.9946575761495824,-47.578105034078135,-5.518463211089679,-38.014258176784125,-44.75868874175127,-35.41535866466448
1.484471645289407,-22.177771998091373,-18.119107110463936,-23.800629434738077,-32.789341106229614,-12.148429648782194,-6.867157189071446,-24.06207409711739,-21.619942187724057,1.4641722720106132,-29.106376934197133,7.472233961373405,-33.26761262912586,-36.84826819940564,-16.952041353238418
1.488378149619116,-5.2039378526600455,-9.615804851699655,-16.96901638852145,-23.604033986997838,1.4637758230075537,-7.131991616977839,-4.316004117705818,-16.12292376064893,16.568424948088534,-37.52073990467548,14.354371813292122,-11.908371283786305,-11.231483482698831,-11.3300074215746
1.4922846539488248,-11.217823642875299,4.6450338727206315,-7.590141823016266,-16.885116477407916,2.104476722187809,7.395129696207565,5.411083074315808,-14.544993574476253,22.40979027008172,-28.984186509636423,27.983667809449553,-16.311785508217827,-17.290902900271558,-9.061780554071165
1.4961911582785339,0.9180585489391537,5.366724716327397,1.032067665988028,-8.44827685974242,-0.5139977181757232,14.27824476554746,10.948515711341019,-6.006663029350183,28.55567878441766,-15.864784421964,33.83791908540257,10.804116454135317,-1.7444722968684037,2.1648321776671384
1.5000976626082427,13.644084549771488,23.16470144778723,4.450214110490743,4.904710995246621,22.82558081535931,22.179993849415894,22.34493969272392,2.7909601499116876,32.17293572322441,-1.5210785366660442,46.70424233351366,4.8540079130292995,8.38979056965534,21.72726650659667
1.5040041669379518,19.870103431070966,28.40941417572008,14.525770789009192,13.473519213032823,18.008188394379918,21.872157220294838,20.168324738524348,16.954591770786767,37.34409659121224,4.754801092030575,47.759710244463264,-26.54989710864095,23.98011144005166,11.374311686800748
1.5079106712676609,25.687206843112953,20.547118679911524,13.861078385648025,24.716969431613585,28.45114531816293,22.51990888409643,28.93963007227217,22.79284452435636,44.63006180882075,5.677003563776539,47.37575568190009,20.941414127733267,23.16667853232385,21.085700122663983
1.5118171755973697,22.86794366987521,31.563454078678024,32.79106208052776,26.769570672779754,29.690825900965603,41.444034206408,28.57474505311938,32.21329495651329,37.91077637916312,16.481474678533583,58.45227014043872,27.30917529892848,30.482718992834677,34.758625715599656
1.5157236799270788,39.97085415790248,33.466415090943094,29.460029675294624,34.42474505759219,35.935237932855564,38.48624728178688,33.338971928739916,41.83855783226835,44.9081172028747,26.652223785494964,57.165473907536025,33.821053924930204,36.64816804577039,25.19502750598282
1.5196301842567876,39.61338035200798,37.26253084160488,45.72541728113932,26.272697358683043,42.39812913196515,42.679431105233746,34.846204895862215,44.405927894210315,32.032752302900974,29.57060927917941,84.89461644232422,30.22081320037939,47.26093156604371,37.67543485274233
1.5235366885864967,44.644773225676914,43.25653119615122,32.86390228889846,32.38813659458156,32.94813704762683,34.079644772769974,34.949628337647454,31.808624210540017,31.600658013438615,26.95914542484072,51.421291202520834,40.56757241410577,36.44640171534649,33.3582109359393
1.5274431929162056,41.79568460248626,33.993264549163854,36.539979721017545,43.23973851293382,32.64004775920405,35.843947826084126,40.56811492833191,32.76917052831024,29.17315800622389,31.113451630522356,37.20809897760073,26.430777360660574,40.60684387891971,32.58937129283841
1.5313496972459146,33.26519983864772,33.297826346673524,40.58861408669833,29.983088169289058,36.059995152050035,35.34845263705496,25.37583307282975,39.20807376206865,15.060482139563362,31.27983835188378,37.968853977486425,21.028670227315274,39.790874322874785,24.400037637579665
1.5352562015756235,28.75120001200674,26.23485215674978,37.60616831740469,27.405896967483056,12.148550695094508,23.313716694308088,17.033794461106133,34.57489664360267,3.3558744391043387,21.179987136701673,29.377185333907182,31.249509940460225,41.3469623229679,15.071561970991795
1.5391627059053326,14.271446690919761,32.02931785207283,26.83110591156561,13.581422213041364,20.711409486681546,29.03843977942422,5.332616632712524,31.646686707218574,2.018752324426444,17.850838589606475,10.571091663108053,8.622693234023703,29.540681854541504,13.688669035706452
1.5430692102350414,16.046194559465544,13.756302247854695,27.277193881365797,9.48836767016543,4.557801103310634,21.52197095640105,-1.5892614107676701,15.80577560788155,-16.628849307703746,15.970968743290229,10.388164435001404,8.129185744929039,31.309841732858885,17.063279564560048
1.5469757145647505,1.9770480342263879,9.350638213531786,21.46851421591603,-7.640455126302087,4.95629614079788,9.017760192973657,-4.0962049491198895,11.193002315493022,-18.506931890197375,10.508644866501884,0.8350631668942841,-2.0137990183456527,23.641270290726716,-9.127333620459336
1.5508822188944593,-6.875519967748229,-10.645798279713343,5.198729192305167,-6.669432258508717,-8.235589943615246,5.357875966993705,-14.118426069163808,2.29078300088612,-30.895005860438634,2.3861844312790077,-18.257897141277066,-26.786488831570324,7.142196981979208,-12.934373479541112
1.5547887232241684,-22.75087980733438,-13.076038413482332,3.452791616520331,-7.236115494346367,-19.62754938802322,-4.469499136882545,-19.419157183845947,-16.283899481236748,-49.31157114765663,-8.575560139335993,-39.05928533438113,-24.994728764755415,-0.0230546432517742,-12.334366213325216
1.5586952275538772,-29.308028632224502,-28.325781369822607,-10.169966593966478,-13.997317107707515,-24.504965788267132,-10.429455140732156,-32.290592624944075,-26.59211347035602,-51.680697770311795,-12.979955293463519,-34.9019992555782,-16.823305292521184,-4.84346406338682,-19.07836382086295
1.5626017318835863,-40.81582637409311,-28.890142942344447,-15.157619093343401,-22.126703278158853,-40.036822895937924,-18.73947849849609,-44.389962332714056,-31.602623691997273,-62.945511044137476,-20.479683150590187,-53.92368125063179,-42.281547359942316,-21.025581689832645,-30.987280501964907
1.5665082362132952,-44.85872016436354,-58.03236671369692,-33.69717599856506,-26.482611341305816,-35.5097415202132,-26.059435427535124,-50.33387235957303,-44.229814803131745,-64.84047354944842,-26.565194586936343,-55.151199716842456,-76.50439374285305,-23.04225885545267,-32.87545836866836
1.5704147405430042,-61.68756607767328,-57.75027228829483,-46.57640278784044,-46.45671265189162,-54.34495892782173,-37.91197044379327,-59.34739479660156,-51.19102947335322,-62.26779164086936,-34.44503416881824,-61.604557082673914,-59.062900160130766,-40.44925667512773,-46.19242420029116
1.5743212448727133,-63.515353140612085,-59.204476744715,-35.54006898411688,-41.64489405213427,-56.1120951264594,-48.43195127702952,-55.39490267850811,-55.010599520664066,-80.30872190178923,-49.9653746021938,-76.75249185440812,-62.550968449936434,-42.907812957422436,-44.16349192674208
1.5782277492024221,-68.59134741093892,-66.08073528943939,-51.13698369921471,-51.15677865887802,-64.30302030389907,-46.766846234398265,-60.9167440289624,-60.373176423634064,-75.00155810016012,-45.91762182833151,-80.0911832017765,-65.66647664902064,-57.60031317243164,-56.77065399110227
1.5821342535321312,-70.33832581129408,-66.22374553469285,-56.68872932134098,-54.014236762376505,-64.89913404779139,-56.64389478169024,-60.84481160633139,-64.18990082682994,-76.5438653509973,-45.24340167739468,-84.42230400965681,-71.706219581829,-54.60867432437695,-68.96194803823302
1.58604075786184,-70.77940810491397,-82.2613344827927,-63.15659862028369,-71.00932213985435,-65.93657734573377,-51.27460906709309,-71.2522239237935,-74.39875796392613,-68.28246761107513,-43.77058036399351,-95.94214002438576,-75.60641413340929,-64.1951279075528,-57.67886759080099
1.5899472621915491,-86.49616789164843,-71.64927823067458,-66.36113444047956,-58.32094010286779,-65.04874615713054,-59.43725490053623,-62.662460246767786,-64.2107394335497,-71.90739959314944,-51.31072408724257,-90.92276212602908,-63.08630262456266,-69.53657090125732,-62.88774231755002
1.593853766521258,-68.9962662913914,-77.06689839073638,-76.41692862049537,-66.64246171469829,-68.94387810250173,-58.95789969171123,-68.89326980854737,-69.67789859268842,-71.84511348631558,-50.99368469195521,-87.03376140192053,-54.070086830613036,-69.9526982109156,-61.811712254825856
1.597760270850967,-81.6689911248189,-73.58196714436613,-73.16805680362754,-68.75987679094553,-71.79302671983649,-65.99971158817434,-66.38227452672673,-76.33616103495014,-62.08151199339346,-55.81565048603247,-89.54926149119612,-64.88751889542675,-68.47281732119433,-73.02938084694891
1.601666775180676,-75.95645852964078,-85.48975269234317,-77.04531176280595,-65.50182486885095,-64.18621636726178,-70.30503989654846,-57.30255063304917,-71.04483347864674,-69.64723835910775,-59.94670887634226,-80.36586555131568,-62.01766339396846,-76.27973874636099,-70.46858993688335
1.605573279510385,-62.470930206643814,-78.88763696810183,-63.294936088628035,-70.07922886167665,-68.21046871694877,-70.89708342880135,-57.58283193268484,-75.36869708347625,-58.542074719149305,-64.29837857127431,-81.90747098848729,-55.095002739099336,-77.12003583748367,-68.72223181941854
1.6094797838400938,-61.84341454688919,-57.91195872477691,-71.11699618098564,-59.44638759054454,-60.50192918280046,-67.95032028085684,-53.00127325680792,-70.07745536788781,-61.26400836565257,-56.949639326519545,-72.36738977480464,-59.095308287889736,-77.59277739279212,-63.42493722316705
1.613386288169803,-58.79989470788435,-69.83038324544786,-65.1200927700304,-50.80819133069074,-68.9357536230331,-68.95085638452252,-41.61656069408474,-56.09680870882194,-58.21661241134394,-46.68885521323548,-58.65348861586877,-42.88469606514376,-72.7103173740365,-58.18234495984758
1.6172927924995117,-59.95639739229524,-62.1057127915518,-62.62533780869253,-52.37531502824387,-51.48187445512599,-78.38741405412252,-47.37329966452238,-59.050840960614956,-38.99305956639888,-58.649730401875374,-64.35189005475692,-34.673918018764304,-69.42846309904364,-57.67608318786234
1.6211992968292208,-52.476484760622405,-57.32736839850717,-64.97992270646309,-61.00305862383475,-54.46984055156714,-80.30477135431977,-46.991820170812865,-50.28749576687708,-40.4642233253691,-45.722884543236205,-54.6010023618467,-33.842471702096915,-62.9464383284601,-58.08948997628782
1.6251058011589297,-38.48474619977545,-47.87511293415298,-72.10691701702967,-56.420851215942314,-54.78074224646282,-71.32242952493547,-38.39462647114456,-54.94396664026516,-28.313287905633974,-45.7859360127353,-53.540396172089594,-23.096233106275612,-62.21087174128951,-54.21533202651468
1.6290123054886387,-36.78995675733267,-49.8905454649194,-57.27637675296661,-54.16108712924773,-46.95201348748903,-73.01299145817501,-45.796471377893894,-45.57829871481981,-22.571284559687754,-49.02357933840504,-53.12366597352391,-18.401307481196678,-56.05702659622342,-45.59167246952641
1.6329188098183476,-25.854991154978855,-40.97923794072337,-55.02736451093611,-40.66011641568998,-40.9707585360561,-68.10654945727298,-37.62613285694155,-51.174508494361355,-41.85887464073724,-31.544980034085405,-39.88961830971483,-15.548304984750006,-59.966301526383724,-43.96715045676812
1.6368253141480567,-17.199125725077003,-27.70861452740747,-51.29546270266958,-34.604333746624555,-43.39245976974406,-66.28053956823143,-30.72417245167685,-39.66266738109685,-12.656948936573032,-26.99935205132763,-36.701034572234335,-10.028230117459687,-54.84900347696923,-42.06001688898266
1.6407318184777655,-6.579209630203872,-37.31929936034007,-51.569412474060826,-42.87924073400179,-24.427812626026295,-64.00455223628076,-26.841139770154737,-38.78564318634758,-16.478915127726346,-26.296126774169586,-22.45700989344813,1.5699682956216843,-53.56039097263673,-38.27009766077438
1.6446383228074746,-10.80578087719532,-33.79359838925872,-54.77331533785077,-35.07252722262645,-24.52316440514532,-50.08241611633788,-26.964452523321732,-19.328190353604185,-0.39148613313896974,-15.674463332578993,-16.31705821917554,-1.2727423904112287,-40.043396706654775,-32.686823075880845
1.6485448271371836,-1.4885315598270945,-17.21813876999706,-43.23643310247972,-25.888404698129268,-21.89293151585026,-43.956035810141536,-11.493099219950794,-16.587906787318623,6.53239458150229,-18.74759079302954,-19.43236020331018,16.89442307501644,-46.89748565003346,-32.2347884490736
1.6524513314668925,3.995090207010335,-15.006135130055426,-27.401524493813696,-23.17162038860583,-18.306690124868943,-37.26655249509416,-5.84065313190532,-5.581465767947046,26.32642011630801,-11.515557611232492,-9.73258006702849,18.772681805234974,-26.685547938102488,-12.544592040103208
1.6563578357966016,9.569736406954322,-2.2534129955327344,-34.72314560480587,-2.7860107950031283,-5.4440183933204995,-28.42650367445822,4.485424461359958,6.654749259016266,23.480004851578087,-1.5486514370882982,-3.4142491507680983,22.69950806038004,-32.19540721380706,-6.399457474827028
