timestamp,AF3,F7,F3,FC5,T7,P7,O1,O2,P8,T8,FC6,F4,F8,AF4
0.0,56.41216934972015,49.374319375155785,72.76806417441365,43.42806724580203,34.30558176825916,33.85398426980989,47.61705694026129,64.2475606107392,54.595159584673844,26.28153339079727,22.872700886383257,65.86850252202326,35.03831869556716,54.1639910794368
0.003906504329708966,100.94307231741891,95.91746395736845,108.9588801305748,90.4091162347461,76.68663248400097,93.80634058943775,86.44723458402333,102.63893234357644,100.04406046712664,82.43161302775631,77.49347858816506,112.85423273754229,91.1421769208263,91.33962769944473
0.007813008659417931,112.07522233393914,110.34714905399159,118.11318620356661,107.8563149837853,111.81459232908232,119.76849658036983,103.24997503977673,108.99717966736037,114.0577276815117,112.11336128332626,106.5418935640857,116.96453850321016,118.42169125755603,111.8108500957505
0.011719512989126896,84.52998664634113,88.22083348342623,99.54506161484665,100.96050676783777,107.0489234339909,99.22101385591255,76.55024222375971,95.82863012909453,87.2756426725669,106.60566775077332,100.77202438744438,92.48150709441842,118.8466287696319,62.9857055542771
0.015626017318835863,40.19016319151001,56.30426288715449,34.74963827229918,59.60012955635476,72.60823559992144,61.04356656327305,41.56471580071183,46.42927453810483,46.64691750883416,88.23122114853355,69.33349421941645,53.20862945116698,73.85117672200793,65.36155227905913
0.01953252164854483,-4.516686702582858,15.373668279260647,-18.9178193065842,11.577321495194132,26.371390467445362,11.416656305364679,-8.123213382663879,-8.85833046547322,-5.273032975895506,38.20455242013085,23.078662283348557,6.889378206979053,25.389772874298256,2.5656110145503366
0.023439025978253793,-33.94695579272679,-36.9243940726307,-60.72551226112726,-40.839859623954844,-28.701198484888614,-39.92514391146219,-38.77214683435523,-50.83177575081937,-51.72131465767878,-12.94860346376149,-22.361343785235267,-57.046106587362175,-22.168707802822354,-53.52490319539366
0.02734553030796276,-65.48762538657631,-67.67375646376308,-81.59551350454358,-58.6705223126241,-62.26654690883232,-65.30096601022707,-59.51658324301909,-72.60783380374133,-71.28696641434327,-63.86889009278876,-37.3209837507851,-86.96050975939792,-71.76918981869146,-90.05843444847268
0.031252034637671726,-58.35969026417441,-73.04698432841357,-82.23486560605711,-60.028209832034634,-68.26877953838411,-78.16625990785532,-37.85849269280331,-70.2304328747948,-67.24910103462987,-74.25096309495348,-67.02355072917088,-84.31634257472987,-88.1292585998044,-85.64244412099764
0.03515853896738069,-27.902012593166795,-40.68193424090677,-42.61045190197241,-46.583918436326755,-54.71583674403205,-64.25502068175959,-15.876615391185426,-43.31798743229157,-38.67591054963894,-70.46902261107314,-47.62267510380633,-46.31397318202551,-78.18487403039357,-72.44812293815737
0.03906504329708966,-15.148334264630327,-8.229501566041495,-0.9399584393610898,-12.626081515099429,-21.124503144645193,-16.609794479265968,12.547211171720104,-4.811043795345434,-1.0904525205676023,-50.83804397137256,-21.453137297154594,-1.5133130834363504,-35.95715433215278,-19.31840402330797
0.042971547626798626,24.635383638171366,33.3771457161527,42.33960333240456,20.00917524670306,12.219913895295146,34.1148423272929,31.525976657094315,28.20735042300778,47.31838076543229,-3.4904310419396243,19.40027725418887,35.29765590443164,6.598101822504125,28.999228415018333
0.046878051956507585,43.48790518940277,50.40758307143006,60.11321328228494,44.176683117947164,43.38089256158201,70.79535082505542,43.787486065078035,56.48152011396927,62.22538236652271,25.95993080982381,62.35482414392433,71.29319098352425,32.62989859266568,64.42864358150804
0.05078455628621655,33.36903188454857,50.72357311965371,59.120719696973616,48.83095705789309,64.87099665447009,83.47613340649843,28.551981316098107,47.9610588485931,47.462590326243884,48.40148918732091,65.83703931961354,71.51979030071092,56.02873526939147,71.4775218780054
0.05469106061592552,15.742757907187414,37.63922999857822,45.06994608613773,25.71528630228671,52.698264376085255,61.95407613068671,17.684480461419348,25.18194553274479,38.548857204683166,33.12066267733463,43.000640450716375,35.506829298259575,55.21087811365506,62.29483783433483
0.058597564945634485,-19.281417569619972,7.623236660960233,-2.901775001792333,13.151046676306764,17.568904022545375,32.62810499621964,-16.634622608779164,0.33705107469135465,2.3577776937337656,24.55189396369019,14.857716678752737,6.859802476703259,18.404059217781025,14.123471353427973
0.06250406927534345,-32.32354942271507,-30.147295309533998,-36.588699208856255,-27.575982677918383,-21.402123078918606,-19.358457463730492,-37.88532213461974,-31.532383309118124,-35.16461818748825,-7.924249705774922,-13.177706802541525,-33.96790369490461,-9.335233352503703,-19.917153132686217
0.06641057360505241,-44.06358034354166,-53.33140892461974,-73.14640197405012,-46.156700916046304,-37.744208233902285,-52.1703468712204,-51.73331633986342,-50.41146546768261,-49.093373560640266,-38.52144147746711,-36.83421846627509,-67.36381587740321,-15.2498111253833,-59.29939078536409
0.07031707793476139,-39.20469318212927,-65.488663484551,-77.20585103981824,-53.59506289684824,-73.98705573099987,-81.37658667320188,-35.935084220930726,-56.5346284928289,-61.13417170939413,-64.33020236239909,-46.592477838956995,-65.08253557865504,-59.8663936184176,-89.82900780225705
0.07422358226447034,-11.618263245535326,-65.48981064094588,-58.12638744780713,-31.148887860751962,-52.89880668897877,-76.57743069131834,-27.106549689227375,-45.6082109815513,-51.647529439661994,-62.19475325474818,-54.12259215164548,-57.22486800460773,-63.33846298894676,-86.32434733831435
0.07813008659417932,0.013789227616038513,-30.479669785986772,-21.457015872521136,-14.656271519374549,-32.44842566214232,-45.20926781392497,-9.769405872555865,-26.642743904625725,-42.87483402975772,-47.45859739428334,-27.862580319100946,-33.7738965869739,-44.26742767436171,-58.361584668855784
0.08203659092388828,10.416151808929408,-10.978843775267148,5.232767268875017,1.3489658754365532,-13.371205712666852,-27.52619572449833,-2.3359603767768062,6.028228174996162,-8.821091234082202,-16.768053671578866,-15.984746317152336,0.306721170588637,-13.228716523995859,-8.709955672161643
0.08594309525359725,15.957857342690714,16.716017745732227,26.892439631776305,8.72613670581757,3.5430373717434454,4.7239120839517845,1.5600462798975032,3.7399002079360013,14.747761108783116,18.105184336855572,2.7938155923016925,22.170968617969258,16.1890716183051,23.80115342880562
0.08984959958330621,7.269698633255796,22.073453154834258,39.18962791992365,5.725622589197224,9.870729408152618,24.061939837462035,-2.0019081615386622,26.84705109770828,14.188771457250088,29.249338057397562,8.281161188832662,41.59208721172324,28.017534956033444,45.78567007193248
0.09375610391301517,-20.902876742160164,6.47492375184591,29.58173191663673,3.563717976514474,4.2941083605846675,17.934531387177397,-18.318655178317638,12.810518414803845,3.2113996347191174,33.342613238874044,2.795727457868065,30.784255516992236,35.25429872754853,61.519840728387365
0.09766260824272414,-27.57089538394282,13.793274505760152,21.265003037599417,-13.275080455280984,7.700091338070141,16.371277837731164,-34.53014853554692,-0.36945343809633613,-19.26796628374376,16.943578448436064,-10.15331180963578,29.17862074518854,16.691649332581612,42.94505258859174
0.1015691125724331,-25.577341969125925,-9.577024600039529,5.477872924014905,-28.059176642360512,0.1752712985622411,7.817617615094134,-30.45602198530031,-13.162364680769643,-16.381314238740906,5.896737397545456,-14.541017085759044,4.565073581662221,13.474593220955498,32.81876259073523
0.10547561690214208,-15.22053990489272,-46.885409953944745,-6.751247660856146,-16.90984912585801,-13.085897141486548,-13.557994105236958,-16.67527932199956,-7.442164394148578,-3.5114448695181073,-8.933381154407918,-15.75306690526817,-3.329791057128182,-2.5510191124392634,43.43068317446162
0.10938212123185104,13.288546856727162,10.228257217075093,2.676837462939827,4.102662230770439,-6.177989397841344,-12.802805818808071,11.256992098585359,8.061647439213157,7.435223647596016,2.411217659310191,-7.433760962763905,2.519146890046201,2.12438638671529,-12.509229409577753
0.11328862556156001,46.64822035600018,28.8374758609262,22.27283080735849,26.119929386700555,17.11875000260194,-8.366592303100427,44.91510944902664,33.133840055142024,31.446180240826543,14.219181937979831,18.060727346569067,11.308012073646672,11.00904469755094,-16.209354198224684
0.11719512989126897,64.94575460463629,39.399435258843916,41.204398291060265,58.58834464384653,46.71276152452825,21.3612645131657,68.32806497262101,55.1361534442917,51.05176603814308,25.984960293466397,50.31788876545395,27.889483436722795,21.28837303217488,3.8658530238992235
0.12110163422097794,92.34828148613761,56.35437995349729,55.2308375428392,80.04237858463708,52.43685507445965,37.959221148495864,79.18943833001258,65.56742427476703,63.478182238641295,53.48476257125184,61.547021419319705,38.622927598501114,42.95522138784367,23.361614824691966
0.1250081385506869,78.20831932164387,56.716781535696164,42.247726636304094,72.46590137523553,65.18907498074769,54.849548845768496,69.10087727690157,56.83169508573879,51.90032725575972,64.1950194233495,75.52958965983238,43.60479142120499,49.88716001695768,32.50938832707657
0.12891464288039586,32.57348222172898,45.38798715473245,23.861324830872995,47.10886644751076,54.54199881907959,38.72627647222422,34.605264384325956,27.46589199071865,40.052839342260654,40.19344549819554,55.63880615908483,28.59740512130075,46.67314387235793,26.924688882950026
0.13282114721010482,-7.470669067735594,-3.7192334776347273,-1.4258077264023319,0.8919782187740672,22.044932535091494,14.359799225853122,1.7188540558229048,1.5711449017822208,20.889379004857147,21.104575942789655,28.999706468759175,2.9139651221314953,24.50481266161036,20.035835450574705
0.1367276515398138,-54.5070592067542,-26.31466046674555,-37.94776568629295,-43.109468462188914,-24.691181490166276,-3.249853595180686,-43.653566938501015,-35.94678246010241,-26.07878436699636,-6.843325829261916,-17.47329155846089,-36.16596516635941,-21.706457706111618,-2.024400696059392
0.14063415586952277,-84.77888723828843,-53.06993810799421,-63.00287136565836,-75.4447199878269,-55.7359565657566,-26.76424003886084,-72.78550963588226,-69.96605325552436,-56.681156202355574,-54.46977393810186,-50.55196507720078,-60.44218863183739,-51.34957326215607,-26.041275999596618
0.14454066019923173,-87.55680106708905,-70.17306096318612,-66.8457523480868,-83.9999396106987,-67.52113420593736,-48.71438819205511,-70.04342110909798,-82.87300008941257,-62.52776624620484,-77.11519923620737,-79.31021516307621,-55.695028361986374,-81.56254771645385,-45.572228585607085
0.1484471645289407,-63.094398909944246,-53.60838678025752,-44.25454361750224,-70.74209109655114,-64.93183727924641,-53.1163862763008,-50.90270886535578,-58.494133885662706,-39.87654762422405,-75.49367920493727,-62.02035620392806,-47.41280201028563,-63.33543392593426,-43.2580718437548
0.15235366885864968,-36.172001077669,-8.853992566031526,-21.81119997546333,-31.927480419696508,-41.391123864836565,-34.04480208453717,-13.99103899270413,-33.773156337462055,-14.67844618905012,-54.75024280703171,-34.34802348957608,-22.241138637400276,-45.27949561802488,-32.210818058079816
0.15626017318835864,27.004780643879773,13.420383266211559,21.428687179754252,5.633264596094554,6.596720488275507,10.101132719289863,46.09301752111101,24.930366372656252,23.896128448402187,-9.697472886646231,11.492836113311846,10.595202276749376,-7.906869401609903,0.7346514979280343
0.1601666775180676,54.95415792378607,63.28690141867207,55.62861388219727,54.52091793959624,47.587701032942306,36.55483020961717,62.20757500763321,50.81099902135783,61.25674213128034,25.4649788568645,48.232257136808336,41.27264570434819,32.329258059779896,26.123624806457492
0.16407318184777656,75.90317975623435,65.23455015764047,57.66792954898461,70.6319152698887,69.14237223120927,65.81680508057549,80.6898398946628,69.56282093573532,69.43917318151979,61.76279273897039,78.65731228794928,103.22091812442274,56.01841299073292,46.67113379646963
0.16797968617748552,63.98971333102591,60.22856497704032,35.40297490908792,71.61614330114622,72.85164512482976,52.38971559567348,59.39400257152362,53.79884668539432,44.12407336583189,64.01613437178834,75.58956647254963,46.7177104119359,67.28773403729666,45.04771307119337
0.1718861905071945,20.24473897036777,24.7644571347292,0.9155963804226968,36.25826118260117,39.320193994218194,24.8847492902964,8.3764114378436,20.74727912710164,12.950129492419627,53.8392672079341,45.994783308939994,7.147475308594396,39.16097407012946,16.531853064240003
0.17579269483690346,-35.123536022858474,-20.40580638140383,-36.03391253715737,-26.714665426324377,-12.353524781034709,-22.517276304066357,-45.937780511732214,-32.76929090324728,-35.6950509466479,9.848519184959219,-2.8822703281414768,-27.46684947712933,3.285450646091222,-27.444054745027113
0.17969919916661242,-77.8529991386245,-71.59684321426285,-75.34416573401099,-77.37173958853772,-64.74394928391084,-57.586769717341895,-91.55482608547527,-76.13915623663004,-88.91256398101254,-37.20261527488898,-63.10166126576392,-71.0117985694839,-45.71940536880467,-52.09088187395544
0.18360570349632138,-94.64376512363123,-107.48507170601083,-97.98695929401272,-105.24749944557166,-99.25876067826658,-94.90321160254078,-111.87681807588064,-106.49053351012994,-114.49815560291395,-76.05842147067587,-101.87793179569006,-96.34598930853494,-83.1248014378622,-83.58651274409866
0.18751220782603034,-90.09508234606508,-96.02741097071944,-86.99148819191139,-100.77661812102191,-116.23635260949088,-98.6315715261417,-105.73240339422243,-99.14234792021725,-105.21239247205209,-97.79652576183157,-115.68080713462697,-94.18550918210593,-99.70129791054912,-90.70845253609662
0.19141871215573933,-60.500319574538466,-70.01847931881977,-33.550814934506356,-75.70193796701133,-84.80812255739643,-90.90544228502324,-70.39334785112132,-64.74879209298953,-78.93351902560349,-78.30395453164402,-102.1182558205089,-48.88413828273481,-76.07366713588098,-51.897022445100795
0.1953252164854483,-12.142126378257814,-17.931968190347018,-1.6409540717297038,-15.34768753846599,-34.99591313208117,-35.49655038147404,-18.111314958810503,0.5526468457022693,-8.643049517878982,-46.19306722240862,-43.14325459100232,-8.21844016651494,-40.00464651367083,-8.638096469122143
0.19923172081515725,44.04060070989975,40.405236115408734,74.65059035302465,36.29663388258296,25.864538567602395,22.814266075643758,38.34061635076404,54.43557232481138,49.622074258976724,27.592056065447096,0.5637838816480993,60.02125809405998,18.00071151708932,43.19077310897297
0.2031382251448662,93.00270567975565,99.19418937943007,98.31997391681497,83.61894949122548,82.99697307928585,82.19436637527843,38.26462485786819,102.78559197131057,93.50484811412072,62.165786452650984,72.48908876861492,97.91965192721248,84.14430144635493,96.08256896847313
0.2070447294745752,100.79914646423025,112.07782704005325,124.67089529129356,106.35900419371298,103.24447789592624,104.28770964099758,104.93333187875912,113.16569722693602,153.77069190045233,103.82951955928009,99.37961566824127,115.0087842225036,121.45614839394082,108.84512473524661
0.21095123380428416,94.60422190447238,109.35879233712976,103.26202350416324,101.40597824405262,102.69939071989648,101.98819955071296,82.02321450721493,92.2336860703429,101.47854171877934,116.53871195028216,101.86970345347387,67.06339643792498,121.26382155794404,106.94838763352129
0.21485773813399311,62.93876923166187,66.54048169569732,48.44240928213927,75.62325080361035,75.05254221998919,73.94806652917246,52.70104980168243,64.92921158667257,63.873659570163525,94.7717654707128,70.29781042747427,58.12133890147504,91.06897102016157,76.09998731337109
0.21876424246370207,3.632895718438407,18.312893021629442,1.834698126256189,32.892699561358505,39.65619666527404,32.07851860585549,6.654702074889695,20.928312668309093,1.3111136720984717,59.51717633825023,36.7452990089662,2.796836952348485,34.7836599790044,12.509527381585038
0.22267074679341103,-34.1643902238342,-30.713334772704183,-64.26751757555535,-28.769412606831807,-22.00910265906992,-23.162316859861313,-40.70443307072218,-39.901245279051636,-39.11546949224431,-7.277340104980848,-9.150047479688928,-45.25002711994287,-25.192193452626142,-37.835336001150644
0.22657725112312002,-54.216938881432846,-61.06964728963523,-76.81408973886265,-48.201079794370195,-48.84810886356688,-56.12395686241413,-50.18281874994457,-65.01705530213293,-54.00953875153017,-51.07728935136423,-47.080931511154844,-82.05549885632536,-68.99826708926021,-78.76383471916049
0.23048375545282898,-62.99236482179083,-62.84126081382568,-86.27027611918948,-65.60212698301483,-71.12482318304062,-65.47068273373343,-49.013816087425596,-71.58753339141118,-70.64985329889106,-76.3548319216149,-61.949536112780514,-78.45626284640558,-79.85212068820368,-87.77333818693798
0.23439025978253794,-13.373634270628308,-44.73223647805375,-53.07812447595251,-40.405652226804705,-58.18504678867724,-57.266657034948935,-29.461363973638584,-51.20199320239023,-40.02507694449482,-76.9282165396529,-51.73808473943941,-60.889381391310856,-77.98398953068079,-65.04709204060839
0.2382967641122469,-6.630705599483661,-16.952917686359218,-4.792122096301731,-14.465487579000673,-28.351808303326873,-17.352655614203293,6.242143485402948,-13.682358477420689,-3.9650317041757672,-60.21791356369375,-14.314199790676398,-17.657055240052564,-40.531949044306174,-31.916674363648333
0.2422032684419559,17.554166307568323,21.274890919768463,28.74609150241351,18.786478104805003,17.397149103071293,19.683732870159773,39.59933377158774,20.213873927989393,25.144132588660234,-17.777696115999568,12.180964065034354,28.82552508577389,0.11294486755852429,27.231583976144776
0.24610977277166485,36.97457770165788,45.789924217014224,62.42565440693985,37.84346812575967,52.24158861728418,52.35246994978564,50.288428660947865,46.11508726901557,69.54749147050477,27.0753353332489,46.31129356408511,55.578783517529075,35.91340301631413,61.879525294615554
0.2500162771013738,37.34172188544292,35.12942553446649,59.06992577630079,47.97746926202548,60.210324388724814,77.17096769621682,47.72641693914208,48.93606775708653,61.865503142701336,47.296682602050566,58.599157488538054,61.07629309849733,54.11346490833504,81.78301023979381
0.25392278143108277,16.238452714290148,42.255707713046704,38.780313684315935,28.485178111937813,54.95854071727237,68.57683787099842,28.186600703510862,37.30181215508241,58.82552586126582,59.58016226899167,43.88989334658312,55.354566389077895,47.22213332004449,67.56129349302404
0.2578292857607917,-13.178024874492776,16.805589401511273,0.29473237496262783,7.915329842491424,18.610698289981208,45.89700629632191,0.8984491389367086,1.3401235087101178,12.339982942082692,32.60994250500511,14.609102785440566,12.861921631885544,27.932816136546027,31.736880199677636
0.2617357900905007,-32.23625193620919,-25.761350038692157,-39.96121242820167,-24.07640892331507,-11.408390951219797,-1.6893223279463063,-38.201834414325035,-27.245071459122332,-32.33532626773993,5.332704948829701,-6.298486316111532,-30.56979601459903,-8.158552336817165,-16.635896918861047
0.26564229442020965,-41.72737472057045,-49.693852987834745,-68.26571059903841,-40.83449211200824,-41.723279845228674,-47.51026882993787,-41.16136494418045,-54.13355233729327,-53.8625736781643,-32.27871485291797,-30.92626752908513,-61.33765885572694,-43.57373016709502,-59.342025045554884
0.26954879874991866,-43.19936971797321,-70.42835987580892,-71.07158183806831,-51.351131497242186,-59.74072367109043,-67.92604126129685,-40.48452861610064,-70.02690818648745,-69.65089394749867,-50.66381352169631,-44.293896150319874,-70.24584356103243,-60.543276766786306,-84.9151219433044
0.2734553030796276,-21.96244009468008,-58.75470840613024,-60.957627301652565,-45.935544480151044,-58.95935279956953,-73.0255757476977,-27.234424257851842,-52.1188645062829,-57.18124783595929,-55.27235075610903,-54.1322698229743,-74.3496664403655,-61.89882884406107,-91.4614198353
0.2773618074093366,-2.429475975271367,-39.07786621630664,-40.0063933311805,-22.261763242753947,-41.24038454098562,-65.24422118616611,-9.710978901911028,-30.320712712699628,-32.237066973340035,-38.88932363180925,-35.9860027282919,-35.68613058980436,-43.27716966785236,-72.24509113613433
0.28126831173904554,16.101816690747018,-13.6340000363414,-8.976176929904485,4.955099519644415,-15.983598543691985,-31.675990236461196,1.5636429804329777,-8.46119004327765,-4.362793433217526,-19.735535154885596,-7.04143313005553,2.006942559105376,-12.670660359020859,-19.728542674108567
0.2851748160687545,8.690372423360357,14.295629316529396,21.732416541993004,15.823503523748569,-6.374016032245727,-3.4707002580148267,6.8845945095195535,27.494726536430154,7.803295383608152,10.050180600289485,6.982279011505591,23.39151183975747,14.37217341870044,11.708756156274076
0.28908132039846346,10.37998224838533,17.97025169109318,37.479316595827946,16.764493724406723,21.035338238005288,23.019565922821215,-2.6192121153486254,27.723896521017142,16.747175378399728,25.392164352509738,6.759634314229222,33.952411761665665,31.078651725732904,31.773558446248693
0.2929878247281724,-13.18366176634473,15.545244846138587,43.751168409848304,12.169812377330265,15.553233163554278,22.967897545693653,-19.022336524870358,10.847700779123654,10.520528013018584,33.88569033216099,6.376591183378834,44.81703155158282,29.22190346948861,56.021010615410766
0.2968943290578814,-22.487041705308602,4.72577396750357,23.069037444354105,-13.739015253480208,7.110487027404169,17.50163277638345,-26.031113281429203,6.2534760221636345,-5.290058143131546,12.072663826481438,-13.665162697525432,28.129736711540662,30.523406945591855,52.170069245812414
0.30080083338759034,-29.953055041402138,3.176484606433389,6.146732726789656,-21.673712265768593,-11.129423633278908,5.673133887843722,-30.32630570497502,-0.30978631518759325,-1.366270494404004,10.325686608441682,-28.464449274811894,5.825278592893504,19.269380733908648,34.099042632927755
0.30470733771729935,-23.53964255878433,-16.793800045442413,3.7745045317708588,-17.777337829143594,-12.661658094164412,-10.071570192657713,-8.002552272867959,-6.096335478829532,-18.37377936717593,-5.558788630401809,-27.812170319288963,5.768888584559815,-5.481772007212902,10.905706457286168
0.3086138420470083,-4.077775526632399,9.015092355861162,-4.342311729016318,-1.5598107432698396,-2.3306638914780855,-15.182530413437929,1.2552924974114101,4.489741066224097,-7.98000185494311,-7.010286336520826,-9.737917844197828,-1.6058124476469424,3.004033003431285,-4.281950288322205
0.3125203463767173,35.96278358385212,15.475416578710204,9.142746597984685,27.247591425432894,10.436221596690423,1.3908747137774247,35.099276630336675,20.568821106756136,18.55354905178315,8.41182894634669,17.002113214452972,8.92413048147585,19.496940906210504,-4.852973102984993
0.31642685070642623,72.84712622453887,38.26685620797302,28.16964199209147,46.94610523638622,30.45354260901025,19.35193525653978,75.2033452090649,50.220395869184024,42.217615445422844,33.2169528786595,51.272914690136446,28.477001553959916,29.58131682982236,-4.054622499330186
0.3203333550361352,80.2750977617686,52.78165611274225,46.010170162605895,60.93408625851812,45.32922746654228,37.95049261226456,85.56157213023174,49.35162420300384,55.1857977335972,43.90510760685847,70.53037759837571,38.356807618003394,39.82003649769709,12.060313773327419
0.32423985936584415,75.08172935176593,42.077515377058944,49.94799054947817,81.07651616220434,61.28694773411981,49.45777564469468,71.88613313928306,63.02507921958753,57.61375149041221,52.86488869756488,65.63426102390558,48.365528458380254,51.37360525651198,29.853158580061425
0.3281463636955531,42.370215343536486,51.18795533774646,24.65867301993445,52.01492431327945,48.473039138491096,48.98458266495002,50.5508358659033,43.09926349807043,41.383532597079025,50.413888771101014,66.6232190633553,32.75091120412938,38.20051712082719,29.986944869167594
0.33205286802526207,3.052504030475296,11.313825649316458,1.8137792582433836,20.34192637258434,25.34004126143304,23.476562889808132,5.464033070501809,-1.1101517453163998,15.638747776975062,29.502372462638526,33.64605186224274,13.488916792097216,20.83673499808669,20.455090022990753
0.33595937235497103,-38.04807355708656,-21.806811765594098,-30.256188852002285,-29.884957473937416,-12.607718267579026,-10.033628240002953,-47.409063050163866,-34.94136035423619,-15.082494067892355,-17.313465619798826,-0.7712289198761857,-19.361911528178208,-10.603946295658076,-1.1511301295624046
0.33986587668468005,-83.04127034688852,-53.10980781627249,-56.88364981000317,-67.57615710303108,-43.90780668038919,-29.192245475025402,-69.31788473218243,-69.05153719623486,-48.85890493738765,-44.704453485367786,-53.13193245615734,-54.65785783097321,-43.40266998299053,-12.711828371202964
0.343772381014389,-93.82963674514801,-75.7409876984291,-66.67663016307007,-74.48500515880491,-74.09200298514625,-48.19910994093402,-72.09082414936066,-78.04782329204502,-61.758855171123336,-73.64012160383332,-67.96874368886371,-60.43998188570349,-65.10484873223677,-35.893927835246394
0.34767888534409797,-66.6704805152574,-74.10723032918717,-53.77836351169997,-81.8643512109955,-70.1575746707482,-48.40612878657915,-55.184555020440435,-63.99355841275823,-57.87437962891801,-78.202775064261,-69.6746970243902,-52.71205499171708,-67.07595988608917,-43.953753497131956
0.3515853896738069,-30.182159479223106,-32.599815029543606,-22.309802473649437,-39.25288179540542,-55.62517352375913,-28.425486980044575,-15.861331855389905,-28.658261029855925,-22.371632170857104,-62.861777133019075,-37.88445863840411,-32.420530723856665,-49.57397160219279,-34.13952127087309
0.3554918940035159,11.379210316434339,6.771507126164441,-4.12832379423741,4.35834025117094,-3.40841656502198,1.2331137803255454,30.404030839750234,4.3371257223457995,17.948322579745163,-26.407004392321518,-11.222787720751302,12.773689734634502,-13.636408251557967,-20.447399577154055
0.35939839833322484,63.951741624899476,43.20785870738536,49.270676304986495,49.08722025456989,34.154104544419575,32.93440412544803,77.19854935807726,50.73247140713525,54.2491220467859,17.842051459908557,42.66553238401722,47.400947879413096,17.93800904279957,21.89829347139727
0.3633049026629338,80.5976006465832,59.615656546101405,60.84733303578726,70.6343706867827,59.11864263433496,50.89490449722663,78.60726227707184,66.24174735942296,72.93186995672394,57.52555229571768,67.28823310444261,54.49009750141526,55.77244035689608,40.57788074696706
0.36721140699264276,63.584553066614,60.229889387698876,52.99785249053495,74.26174041133326,65.14787251447471,56.28071564414518,66.52483656219053,63.69209768479151,54.66868851122921,61.73629862200327,71.11820372085184,49.41395507476739,68.30742616365947,37.39905317897645
0.3711179113223517,25.572427300867524,39.20137877712127,15.595954434606709,34.796566127676996,40.74079864318464,28.647317324303565,19.443892104707793,22.964671060605433,28.572661407377595,57.49893285946617,44.92044354667025,26.337801121237597,51.866009120750036,23.11016052836415
0.3750244156520607,-12.39437068201336,-15.712447069433088,-31.202897558126867,-2.7966997367732995,-4.1018411323489845,-3.4132709873042337,-37.18721944873483,-16.71112504649632,-37.95092942447585,13.028702615070072,7.118792249671398,-18.770174413619763,23.380657494637592,-9.685391638280603
0.3789309199817697,-67.17751510296134,-70.62559856276388,-68.17717584351114,-59.80656096754749,-46.337293192529245,-54.252609683818356,-82.88798754762855,-62.78138386775708,-80.78868775661654,-28.986723660927794,-47.9891675428446,-69.55578310660577,-39.51189511419005,-51.4125392716333
0.38283742431147866,-93.19570706046717,-98.29530367782813,-94.76349521347554,-101.83606414557434,-92.5852380017164,-95.47954493391698,-103.4154831151263,-97.76148672414826,-111.58458624683013,-73.01639876646058,-91.03715793625788,-89.92077061369477,-70.92438890027456,-78.10101494125185
0.3867439286411876,-102.99625565369969,-110.50326200872827,-88.58597274694263,-109.3764965805436,-109.66948337187709,-100.69555852443796,-104.10373379269164,-102.88393233910148,-100.43395411746349,-90.96259504594067,-126.17260735964445,-87.24086174483986,-101.60194731202569,-90.51380619275079
0.3906504329708966,-70.30800880859417,-77.92587707031021,-55.250937196891726,-88.83818172748876,-87.06482116466671,-91.2857304018909,-74.96904977398343,-62.69131558080113,-76.40459706227848,-90.68288042555619,-103.09943266478268,-58.44793225289679,-75.99156155371486,-66.69878520083668
0.39455693730060554,-14.113037451931058,-31.3311410647581,9.281908456104146,-33.42386253822202,-42.59643946580766,-45.26413516024947,-18.75368033429823,-16.533438016736497,-25.65759768141441,-50.923477555292855,-65.76358411746799,-11.486060786296754,-39.570836539936344,-24.47052028998766
0.3984634416303145,35.768048748345855,24.835117566042964,52.40602914838354,22.051008611328584,9.033671612837676,9.15090946101905,37.34561069103747,31.653674545513777,37.84702335960241,5.559279643923646,11.767646697064468,50.142691867658,15.15265273886595,34.792974501395186
0.40236994596002346,89.77156779305696,84.15013016795295,101.32029951831315,81.1934001105354,63.01441564067974,61.023094349460465,78.85224544643839,89.49957014016665,79.8805027104584,54.66623398540604,58.59416704091325,90.58679357945161,68.16310437773704,85.51890764054147
0.4062764502897324,111.20687226618367,107.6269426778287,116.16258067571702,115.51523703712706,101.22923874367622,95.23112291257351,98.32476674503943,118.08137462115549,112.98883198663057,111.72380939460008,88.96771661781335,115.09173267939892,109.19559802949607,116.79516273680261
0.4101829546194414,98.59395758916249,107.73844682581284,102.50678214442645,102.16630774377671,114.65750042528822,104.14169744404317,88.42205428861183,109.88245625407062,102.88267650333412,122.9640626914139,105.97005982155295,101.84637926085185,119.90285201137385,115.75957802320237
0.4140894589491504,70.28175108383414,67.31466863051111,59.070830217385385,84.16785160201589,85.81357097143155,74.28701747136174,55.58207135097943,68.75926737380374,74.87898726390037,97.48574435920601,75.90167011306869,65.58145114273495,87.91766564849084,83.59669226635488
0.41799596327885935,15.935750084104683,29.542506783887166,5.209740417092995,36.30049447757917,49.57403778827278,34.05685775793563,8.644827708770059,20.06035222675272,17.237294411757063,64.96352441194891,47.73437510309719,19.412938104978622,53.80691461255337,22.47206150324127
0.4219024676085683,-20.772409121774764,-22.068867714696328,-38.546477077312986,-14.527488508864604,-4.628705616896744,-18.58757794424902,-26.375178747709278,-24.26921457771489,-39.34697551594639,4.019068892144448,-0.16389169860255537,-40.58829656669149,-7.223294917779109,-25.595141905508402
0.42580897193827727,-40.90933855415835,-60.47586480826663,-86.80254707382261,-49.29607429668484,-50.0283249205567,-55.46998085834116,-45.11352891746867,-68.44562914484969,-70.34197769766071,-49.680455012458054,-37.06817979046551,-72.74474632122964,-56.141855232614915,-70.32584432430424
0.42971547626798623,-51.36824129235949,-74.09624995050189,-87.10534543409412,-61.4335948488288,-67.60354012707819,-78.81085481473748,-49.36493137250517,-78.02426935757182,-68.39155165110336,-75.75013780217327,-65.19066033942123,-82.75629988611954,-88.49206646419707,-95.33999062932327
0.4336219805976952,-37.656442780647936,-53.47042882540814,-55.12122100241697,-57.68882456168145,-58.5357120169112,-60.206426455338445,-29.505525622361986,-60.725102436248186,-52.77589823203442,-80.97916710763681,-59.20626622084024,-69.89609710086333,-86.88725662402707,-68.81095101360305
0.43752848492740415,-12.08019124102435,-34.02068522833793,-24.47682413594075,-28.03350752687997,-29.956458621458516,-24.215245150328016,4.580944837731531,-20.35021330961578,-20.279149692359603,-55.52737793882444,-28.090299905129307,-31.53137042339705,-54.51970836723299,-43.28119046551906
0.4414349892571131,17.051525794214843,9.22566121639259,31.94347498889587,6.438901618536835,-1.2714451227584362,11.865450422853622,23.49157099693449,23.133501291461283,32.152298914516884,-14.830026464759902,10.845238088673089,17.720372024951732,-8.677023359807242,13.312136297744392
0.44534149358682207,24.684974324301646,53.5783970888557,47.49307341667583,36.4200140154387,43.551949779232274,55.0274162780362,45.05525131210785,43.099966390865006,61.53526601716792,25.216846785894315,39.777658295473344,53.59059336469181,30.021783230821764,45.63390487826759
0.4492479979165311,27.02862685124929,51.63356010143609,73.20604972930235,50.07121668618102,61.7417645748151,77.88051830964832,36.13573549695542,38.78473603864548,66.56479560783423,47.48769858062379,50.00630571842862,67.58022253152477,61.16797912631887,76.73997615094903
0.45315450224624004,23.417925861761656,36.56719269759566,50.777241736308866,42.7821961605506,53.77692454138574,63.32179512157559,26.651491642479186,41.72221529528584,58.30130434647359,55.63391956907206,52.15323661028646,56.4503747351262,61.44312325724592,67.80040166120666
0.457061006575949,-5.641863614765269,18.66116386614744,11.826857151424374,12.478692720992546,28.094852421354076,40.119421678599686,-2.6783356322433347,19.70457414612677,22.243426310472394,32.25954425453099,23.70364045062028,24.294427542448496,37.05356602295709,44.616288698231486
0.46096751090565796,-26.146921624189087,-21.672851745064932,-29.42995897047534,-20.423964007825237,-5.795012552065264,3.395527650379239,-27.675074485754813,-22.10434743423883,-21.487324825262842,4.467741922689261,-5.681089987156222,-21.719997043384023,0.7751683146605233,-8.208201430778287
0.4648740152353669,-59.98525766829136,-42.24316572427266,-58.824703693485176,-50.40261010996807,-25.996193276830915,-32.791634239940414,-39.26827036618889,-59.5019026259671,-49.056130905815856,-28.533443146387004,-25.897263539369767,-55.44100014675622,-39.49084609213786,-53.54911767663402
0.4687805195650759,-50.72279588680588,-62.18152331311357,-69.48304530569403,-46.41976364822237,-59.443245948306135,-74.0096700276358,-37.09753306421227,-62.6689555529232,-63.812157116127295,-53.714357072512136,-51.19693679709938,-77.17113825714179,-67.40437282930978,-109.76313716086916
0.47268702389478484,-27.695169898701433,-66.37265244141356,-68.20317533925719,-43.07177211387268,-60.3974105495494,-72.40290893399339,-30.62315245037212,-59.72465460328499,-55.75863848427318,-59.19188239510742,-46.25965284389762,-68.29876177724626,-72.61912836399533,-86.25576973418971
0.4765935282244938,-5.147766658440031,-35.83194473144917,-40.03850020744505,-22.674397907846483,-49.990737916973956,-64.543988409061,-8.974208630624629,-36.65933439900805,-46.06002239280163,-51.643196983517306,-47.915938699426036,-55.475338174445746,-54.50830963104135,-74.88207227112979
0.48050003255420276,13.644277015554476,-12.153828902518647,-2.974309317037511,-3.7238486526844157,-28.886269644446635,-35.815098354797016,-4.816441923959135,-12.14603380484732,-13.406040292006487,-18.137176507545032,-19.40754194232917,-14.560147276003347,-22.645881542836875,-44.003871279732806
0.4844065368839118,22.580292263694155,20.763428796327652,24.735508992627608,-4.216072411453524,-2.8273901461849515,-14.098149235963493,7.258658270473697,11.813362352969161,0.05533904395753364,-2.427783634072222,-2.0964219886460738,20.893439993463154,3.2644588657555786,5.555752819671219
0.48831304121362074,15.81198982806496,17.568958577554604,32.10175993709653,12.173266155979324,21.10389840318896,16.674367489316133,1.8766867310425797,19.373426032041333,10.831772160669619,22.13536913261217,10.138981992335655,31.194860573359,31.108460092347723,36.3030481013952
0.4922195455433297,-1.468757143207669,20.30798265361286,34.13155420456048,12.289010879900438,10.520108221264582,34.014943200592214,-17.216419902000133,12.683395890969727,9.291071233322885,26.866002268402617,7.573372599579883,40.29496319213452,30.57103564981442,57.172313681265635
0.49612604987303865,-26.206133515122648,7.607754656309283,23.376667899489323,-13.152425403000658,5.4554328270482575,11.869547452582513,-26.134701960691128,11.978727080479374,-3.7083640675399376,28.138358532678925,-4.591567600365188,23.436053801054825,32.207889716704116,42.36587190015278
0.5000325542027476,-25.190488068140933,5.3508260745918435,12.602231430163988,-25.411009006315854,-12.251376615526867,6.921030315063665,-35.70286189498943,-3.112712911536538,-13.55633959699718,1.6553134649851717,-24.920665855693475,10.845993513875388,19.572992611182343,39.1468756194491
0.5039390585324566,-22.031999542907865,-16.05671309605322,-3.2826102901977436,-10.44651564248608,-0.018129013697326002,3.7808383867409816,-31.70286932644843,-19.60230520110915,-13.038473537116467,5.046820839959992,-27.19280428014445,4.183176466855397,1.843996859858403,16.12077056824816
0.5078455628621655,-2.379817075891576,0.6467969219652385,0.654244561475922,-12.663162577228066,-1.1735561820860667,-3.024125165378246,-3.268026723806979,7.703395223768451,-0.18536598525098036,-4.86785817594098,-16.6669072137585,-4.1432448471323635,-5.939093796026576,-6.003606590163048
0.5117520671918745,34.30729601832216,5.244145425833523,15.966480962410266,27.138694158343064,7.524709934130848,-0.9589101989482524,35.99019253500408,22.811634070235804,7.8005474643593145,4.9829487854040995,6.479714140463933,11.688396093184412,4.174136050211021,1.2414799978714708
0.5156585715215835,57.51129803056093,36.093772937630355,21.987889344427135,45.26072855420617,29.38517915613086,15.82325304719044,65.06797578886382,47.169348923956974,32.435590683326765,20.947137582810754,31.18700331296342,22.373329626452332,18.706550574880094,-5.545015874207658
0.5195650758512924,83.06948825437794,56.059226276751616,36.240449063841695,77.92333156387117,49.2003037225965,42.294432766502176,90.5017586319801,58.7769347833184,59.01777677746343,38.50551269411376,51.48221806050202,39.709833299465096,35.91563565166136,16.13830459558574
0.5234715801810014,76.45522250515373,66.15112260320757,54.13777689016217,69.10680453583969,49.61038410462564,55.11942176607425,80.29124399813114,49.90945072712758,60.49858104210874,60.92945933560055,73.14493049104914,53.57989461087246,50.60942091713171,22.880024733537642
0.5273780845107103,53.6168354103008,53.4715514388254,41.79867032577163,53.09059522377474,59.629791232769634,51.98673610507352,54.65105737870936,43.240446995981685,54.168976415879435,48.30144903148731,61.90583253351653,33.848387206396325,42.859754886835304,39.7788079267036
0.5312845888404193,13.945580806159176,26.622958858255288,16.08571670551693,22.009040385054114,34.88656245563723,27.856305633399543,16.438591071697395,12.480562028777937,15.554904542918894,42.49813121075099,45.1249646921875,15.52751826941909,22.033997540696145,17.248049139523378
0.5351910931701283,-40.94262858968248,-21.315351539449278,-15.948718824246722,-23.706618389016064,1.9646795156253174,6.747068976271201,-29.688526883869173,-24.69273885452865,-10.794925190459193,5.853789569924648,-4.563571217501763,-5.132243923164168,4.016796253917486,2.751052593230888
0.5390975974998373,-78.09039629177104,-55.495342937538865,-47.440336525930455,-66.95390743464554,-37.283078293615155,-20.3546006287289,-61.73979951585993,-63.15599008674523,-47.693983444043,-39.4244727847156,-45.84613087587482,-50.64491554119499,-33.451076884949295,-17.019719882322185
0.5430041018295463,-91.54767308314176,-65.94884112144176,-62.20155329467257,-82.91959506523476,-63.22746645530866,-42.02146686365564,-77.72438664453284,-73.16087542058638,-61.49286464687649,-60.904269796204716,-66.75685684762591,-65.19826661114661,-46.89127173455013,-40.33471051557283
0.5469106061592552,-88.01627463468463,-69.94596542469533,-61.97108881440827,-91.09054791109064,-63.31454398546685,-49.116627589191594,-57.34899472763634,-64.84918939442557,-60.23723363434012,-67.9567856998704,-70.28200586392803,-61.10790676263139,-73.42325718898147,-46.5764711883123
0.5508171104889642,-48.33588701952303,-40.25877149016439,-39.00164684554466,-54.507417908295714,-50.68178623100169,-36.515059816174265,-26.122703308563906,-43.1627853503923,-22.356157599020655,-64.02918094489141,-54.585197717800426,-37.63642561217057,-62.204264002806454,-35.697582102431575
0.5547236148186732,-0.2396976247702698,5.650569725656833,0.36636748642747996,-7.419017883121489,-11.01914957395724,-10.268691945607683,23.824738651430437,7.719408737064815,5.26437125509254,-30.391264478021895,1.2552328910936392,5.682615829959305,-26.962366088970374,-17.254104069698137
0.5586301191483821,48.37260339486829,45.05472815584565,37.99791073351476,35.45403357768333,31.116896154557885,23.801266903465322,62.46448375824303,44.63153270992147,48.916751306836034,9.41629795744997,38.65130589156111,40.057342370631126,14.556365900307707,14.40489442549863
0.5625366234780911,61.54608272575314,63.8259863019747,60.106461487568225,77.05960493350373,56.9542685330875,57.58317659145877,82.35900104159067,62.26370989079162,75.75255152901455,46.47001349375243,57.99707983190372,64.61911188603675,46.17598379102103,35.448350091147766
0.5664431278078,77.47848731668228,65.02798894694493,44.356374169796055,76.55056500962729,72.99159611340416,59.976807812798434,69.88007241917235,67.01426049876359,63.489529961899784,72.28049526739191,71.29467300951514,50.93726144147132,71.27733429213745,45.0695545270384
0.570349632137509,39.668906026746896,39.810763923501895,26.02858271552703,38.784928952274,47.36059163964478,41.68937556961009,44.59476500846152,47.1169397669414,23.83748441282813,54.51261291257306,52.55614800658578,29.82751518807974,58.549578117435686,28.14148691903664
0.574256136467218,-13.752598481983318,-9.982827928426593,-24.897111681273188,5.107749011159668,11.514880224195037,-7.7625884312692754,-14.16800596689885,-15.517468103167463,-26.223731575126923,38.71733535476036,19.99356414213167,-12.579167721743941,21.719502345644717,-5.633739631758203
0.5781626407969269,-63.30281078903606,-61.6440301206738,-68.02699615138907,-48.362164900724544,-40.633815695001324,-48.80484603747179,-64.7670277951213,-58.450281719980154,-56.379675977470484,-20.1845855864739,-40.05216510199329,-54.202009598905526,-19.514562325513893,-44.9972593985067
0.5820691451266359,-95.76317271697792,-96.0675115106332,-94.97517802405521,-88.21485766843942,-91.01241910209578,-83.38026838359819,-98.42313721294418,-94.09530944416196,-102.31011046524004,-63.694350070392126,-97.74630663031174,-92.02853312113825,-67.25306124934276,-70.30493382053861
0.5859756494563448,-105.18353073726622,-105.03451203575568,-91.85357791480575,-104.12968332679588,-107.39873148610498,-102.39316743199842,-112.93284809118589,-101.03208001753529,-99.49274816935474,-91.06950899566934,-140.78319062092652,-98.32269421433539,-97.3899725220945,-86.81493521241
0.5898821537860538,-81.06481894726153,-87.58340230775688,-68.79420870319746,-97.69723915268975,-96.08951242248791,-95.11764069045223,-91.17039033618205,-80.99973542402017,-77.71150110543702,-94.06630562349132,-95.9429292005006,-64.78276225956009,-83.22098978713379,-68.78864368125387
0.5937886581157628,-14.816952908845149,-44.22031041539258,-7.577996477576803,-51.42129614710272,-53.56967394538205,-63.45430218592351,-34.217016077340205,-25.9046936191706,-32.61387404119933,-69.24808144467247,-72.22268295353415,-26.25202827854647,-41.47598043668563,-34.079833124046026
0.5976951624454717,28.250568153832873,10.290126077650367,50.211414661937134,16.09421525828714,1.314678216621214,-2.638410869387506,21.430976616506083,27.84540086148448,25.086503784463574,-16.46625809422717,-10.424527444218041,27.884317541823208,3.391977155466023,28.037879770030084
0.6016016667751807,84.17222079944334,77.72145200124064,92.82765023248183,64.86395317088109,51.14814515479049,57.00382852797442,70.38101750169031,81.8021410259079,73.73588636971951,49.611504874329825,52.04669998076001,89.61928845115217,57.61430725091661,69.1118991591312
0.6055081711048896,103.78944449228969,99.78642350178713,119.94960061205673,102.11339632270928,93.90873682600737,100.39634340294045,102.26301760558518,120.9152576483436,113.36462845968232,83.43731064242964,87.91526257695757,114.38335670463583,100.94371617277741,103.16833379662981
0.6094146754345987,104.44495374545434,111.88444186165707,106.03233152204734,114.09231637577037,109.11058581106901,109.28442089591188,92.19414559514686,109.61921945716983,102.9252797483244,112.2559084098027,106.78071703552035,116.81208565043659,124.8576422397095,114.05753144759592
0.6133211797643077,72.65480710240466,86.50494575941511,76.81597607266312,84.40586415710541,88.8067202555736,86.97464548957427,66.70521821271237,87.76775381508496,77.07717171693442,109.61218168204897,98.65769280178561,81.35473700993279,95.65696499346286,85.2753587389452
0.6172276840940166,18.27167539624564,47.036666509326665,15.212021726623478,44.4772381693666,62.09810323450557,52.97334768187914,26.966280407536374,28.107393701760028,25.108158020134,73.24687880883192,50.891724040197076,19.18860829103194,64.13515082014692,30.96765488611987
0.6211341884237256,-13.442674758844127,-17.32956650130559,-32.397664850520066,-12.714389148083505,-1.4153104922057587,-5.283353587315243,-15.57237536940607,-24.51898895265986,-21.659602171350294,26.58806091331156,11.48311100958133,-29.592903230929522,5.687043178362966,-23.806907759587425
0.6250406927534345,-44.075091476893284,-54.31592644930177,-78.34375424262856,-49.303285659325134,-41.05996151529743,-58.04564396971358,-40.41187466070458,-46.03649259598265,-58.28785354233053,-27.92113920331414,-23.463620201223414,-72.41446099419494,-49.50070639038568,-70.88689472217361
0.6289471970831435,-75.44421764799739,-81.89702494716121,-83.77702733013315,-60.27916520807415,-73.5754228133514,-81.05458277206534,-57.44597544619599,-83.72510146834773,-76.75120681499943,-68.61277854324057,-55.12071789698139,-90.10234179867365,-81.50934530731134,-98.43549014968133
0.6328537014128525,-48.7060344820494,-62.00984333219998,-63.679405435356976,-58.29250227078275,-66.54159269898548,-63.49647980809319,-33.778377988889645,-60.13450180122022,-51.89050263002322,-83.99481231390146,-49.83813785605262,-60.81362003938706,-82.30368173690546,-73.83087610965677
0.6367602057425614,-12.69787580243674,-31.560964041335364,-29.99786357780514,-33.038822220522256,-39.72169787109659,-41.40753886519026,2.711047726580098,-28.06197187563247,-18.942281325802078,-66.62873557245146,-32.20731859045091,-29.188367586883793,-58.79689958112748,-41.50161481734447
0.6406667100722704,1.33974208537329,5.57034584122135,20.274429234250736,5.703938875555875,-5.203656353953529,4.359609778735398,25.038564945307577,6.617384099604835,29.805562780428264,-35.06397451475104,-4.6711912501604935,13.74555208021469,-18.835317178813227,4.073258710286236
0.6445732144019793,-0.9770397372158257,40.74305707092683,48.455866081189775,30.369308223859655,24.88155062375074,51.79813390452248,43.29676493917534,42.63417164119291,51.65791148844018,9.053111463354826,26.66235557589162,47.05232531041988,17.36975490357531,42.98373869645185
0.6484797187316883,36.495050088862165,56.57888479108418,64.65367793730161,45.15566321016921,54.38613363504197,75.93773572001335,43.529223769696465,54.350685812130536,64.55928291160623,50.1474382949322,49.39681447428822,65.679689205589,54.44923866974225,84.68145233703652
0.6523862230613973,23.58473845106113,47.17139219452167,52.95267721519212,43.67251099996313,58.335963892182086,70.01365496280356,20.282580825840917,43.78935107868561,56.6435010920568,47.91302706143077,46.10864384628555,56.87393346073112,50.60530274345302,76.58274604375795
0.6562927273911062,4.673573304394923,24.992264400987324,17.755566081500408,23.440148902730396,40.688932580274,57.39456847553147,13.252798921959444,19.6251223479804,26.54475033141227,41.11646691543033,32.91802046444787,26.974732599343497,41.8479386685951,40.08311519305075
0.6601992317208152,-29.720743502499936,-12.013551338812636,-19.005806523095387,-15.066515722279044,10.927656165895467,6.775780906335223,-26.310917374257542,-18.24638620505163,-13.30915878105908,15.977450140871907,5.4046996833201275,-16.12100616972443,8.20542603924882,7.317128625200824
0.6641057360505241,-43.90135355484862,-40.10999266957781,-63.61577111603712,-33.59185735525601,-29.038903305920762,-28.47828383455925,-36.01806759712052,-47.98975813870368,-45.62289415308766,-20.739015768037838,-24.44719359878519,-49.72635874014512,-15.52463370971241,-38.89331883786553
0.6680122403802331,-31.43102023368519,-46.79969515888415,-74.46653614543605,-58.020397441541945,-54.8387373447496,-60.30482043769893,-48.9077157044303,-58.91596093608096,-72.65093020412267,-48.26117584454611,-39.60630448530422,-78.3049475490946,-50.24329880315277,-80.81990063952804
0.6719187447099421,-32.930535296454956,-62.878403490911346,-67.31254354198916,-56.774710809304146,-64.55192820275165,-78.39818150353135,-33.964480880237474,-57.38870442261348,-69.8011887058377,-55.137181770520996,-60.49123460529202,-81.31455349052308,-68.80175304285527,-97.66720088417739
0.675825249039651,-14.650234164090069,-42.72202775040798,-45.45548884245648,-27.80746884789427,-57.531846389216064,-75.12588933534367,-24.046574399131668,-32.723163604747235,-37.96266920808008,-53.547178005160475,-42.71967727404654,-59.001467276492946,-59.44688779447264,-81.93999729651723
0.6797317533693601,-3.093724438910277,-17.238430776632473,-13.1790755685271,-10.675433633849796,-29.040750795680353,-55.78229911807913,-2.157856039899515,-23.06113152000061,-18.66274854788595,-31.8063343760003,-29.640874987808836,-16.80789643469642,-34.29918951528183,-38.94768446353277
0.683638257699069,66.97064029521198,9.716323159769475,16.217545784165782,11.167560086334941,-7.999976290301264,-12.750081728987562,15.033093412760056,14.603254865073461,-9.178134898705068,0.3455468340035752,-9.22133543333058,6.43381102652522,8.507482646171797,-1.0914793543773942
0.687544762028778,15.491499200370013,15.164364366906064,42.732866319466964,12.738504785296396,6.00818655107077,11.271311178047641,-3.291806671991158,24.127676195384865,15.96539535670015,16.665511290438427,2.81155042904393,25.450822794394107,22.94315169221106,39.262370473009206
0.691451266358487,-3.3359342370244303,11.421713675153834,34.42138041282134,3.850940813081647,24.85113480204508,25.467361793024903,-18.337047574808565,19.28267902289158,9.713140010136001,21.639311656944784,5.534961908447506,40.26196349480925,32.65430223473481,54.50402406955092
0.6953577706881959,-12.395562907738599,17.034306487128017,33.38012990047542,9.478959951671992,3.2026287105934177,15.33436114383857,-30.839105951498976,13.275855973918723,5.45177274773915,23.138528201271228,1.0489969451176124,30.735387572555666,29.48512050065692,55.789223954183235
0.6992642750179049,-31.298723987047328,-4.592954906285983,10.403456522814551,-13.228569012931755,-1.8077936792415124,9.29446781583599,-41.50585834034826,0.7324199441645174,-6.951256219138603,11.733274531897383,-18.8390894514518,8.979475314903688,14.539003925105888,42.4147584441848
0.7031707793476139,-24.29371174982605,-10.104917597760313,1.3873816083536816,-25.066777921514195,-5.7813877329398276,-3.2535188579268857,-61.410101706814814,-3.374477168562912,-12.128264443414475,5.318943063943203,-20.295105294525086,-7.53016602378433,5.431274675200568,16.934596947040145
0.7070772836773228,-0.7165415275747558,0.5612878741476681,-4.927572117703406,-12.31482824526283,-5.676783902121615,-8.90533695055515,-7.49101951535846,-2.323006293404719,-5.419655029305104,-10.78360063457005,-14.123296705185584,-5.207488476320624,6.831380348388569,7.874381481863416
0.7109837880070318,33.29926779411046,10.689017149511084,2.9430312174425035,9.073293612899363,1.527687949542203,-8.45952007712807,17.945254449671065,12.450833033260237,-3.9020056394370677,1.2233314718026087,1.1191161217203631,21.41609610119673,9.309649253841268,-16.89768127794677
0.7148902923367407,73.90886941827128,24.72389022552865,22.73877730509753,42.15138692721952,27.055723732961717,6.36942872905055,57.79513053276676,34.93880166537653,35.35260199266607,8.879525010040982,27.024338547484568,23.494185300083743,17.45483918966406,-5.826134561658025
0.7187967966664497,77.86476711477755,62.89218526951857,38.42971800503754,70.40321082876001,41.47805368995299,30.13818385190465,78.82066251450728,57.567123550551074,52.70978005706713,34.07279809022429,64.55370789092846,31.898402633425157,27.8716791439144,8.494845026300181
0.7227033009961586,71.18152669384774,65.76165781170714,51.051787900023314,86.47905680463452,63.92353181860864,41.768754536323186,86.74726394083059,54.27427912805886,55.212497300474205,54.79887344739635,76.12145635864645,40.368931673877086,44.94778257749695,18.07242533884756
0.7266098053258676,57.97276238054907,59.017232825646424,35.91367356416553,63.90612893341914,55.30185808072173,48.11837331007807,55.506442534441604,51.36219709409858,47.473636574966825,58.86030704225753,72.7962214262097,39.812398582605795,45.13661005892095,23.64580556244023
0.7305163096555766,6.126852629620512,33.93420790227731,12.62407757124871,26.79312979419099,43.054728146911216,27.809025411527596,19.583576525145666,25.37976644580639,28.60643173272434,35.53192245261419,47.95963796093654,22.305030406708283,39.69398079477014,34.20463793106381
0.7344228139852855,-30.079271735246873,-14.701329799835815,-16.068260164921284,-3.6533117297310405,-0.688902496302406,20.031379142564262,-27.96665957607302,-23.439601873475844,-9.176066547067201,6.169605861822566,4.153429900147973,0.5106094831019234,-0.030148767651952735,7.694053045435077
0.7383293183149945,-71.76754083871856,-42.65725098241025,-46.47568040038909,-55.653651028570415,-18.103349952115515,-19.1708719955185,-67.06387404383749,-60.47468645927533,-44.82687426365934,-34.361909377226816,-34.46894934390586,-47.83856920561498,-27.482251994162894,-8.489947582515565
0.7422358226447034,-93.52438990419607,-65.94926461275126,-54.43345554989884,-77.74079999053582,-56.5017355342695,-45.16613354914918,-72.73161043540509,-74.2421752915357,-58.93335376556243,-64.29011662083866,-56.52397962435733,-56.336869823876235,-58.8626088412245,-35.71643334661827
0.7461423269744124,-100.39242517053704,-60.387765676279216,-56.44436221961653,-83.40898511846743,-76.89320040704679,-45.416774839931364,-65.00353184479577,-67.42038886697432,-48.15345529252836,-76.35826992085444,-77.53328034428147,-59.46645595290826,-75.75580955571868,-43.78524740298839
0.7500488313041214,-48.617168837553606,-50.6942459847718,-32.71910407386249,-60.45241206671049,-46.11333433936913,-42.36243822657434,-46.36352054718023,-57.50801092394005,-37.316902349790865,-76.706994871608,-41.358106369082265,-36.10615522748422,-72.22466130121806,-30.954316533802857
0.7539553356338304,-1.1103433885660348,-6.443665766878864,-4.66731637678005,-14.077298794181289,-23.954627270767876,-4.447784735131241,13.108742326046857,-8.479690509866053,2.3460442899381357,-36.84417597444919,-20.520887317570597,-10.862120066107021,-30.4095773485664,-18.161780413362557
0.7578618399635394,47.38385365316841,36.24462460892512,36.08086034122427,29.345464257409905,21.635871668870756,18.766689336030687,47.2242642804162,37.61849306144866,36.68233133696212,2.0715483355026754,33.39011369296796,33.79114136344375,10.15474650590912,10.373114704595242
0.7617683442932484,72.14448085859512,60.26187151911262,57.20075459341557,64.77032160217064,53.513386307492475,47.641094000821106,76.11254316768427,68.13155491087534,69.20006806836491,41.638006636232824,64.46977177451281,58.50489249067159,52.53109642727852,25.290941005294734
0.7656748486229573,83.01810766987514,67.59244672506588,49.995228995516335,73.40166488117647,82.27381324613758,65.89934707374248,81.06568213828375,68.64687350537574,69.81450161699962,69.99755059512562,73.09204781980571,61.3940520238617,64.27468721358994,38.3899252390206
0.7695813529526663,50.09587970859364,51.297725133931394,29.281242395026194,56.97326774123258,60.486019299175,48.28328004052663,42.55527395938082,42.223194603367034,39.21234181943103,56.90960749608939,69.83515173876951,35.47508554637918,60.3704158683986,34.19104019186841
0.7734878572823752,-2.8072889543982766,2.462963747057895,-17.031340625427767,12.210299408976065,20.570781206707434,7.260316836818709,-7.74322677330113,2.988847197362841,-20.822228947449346,30.568913769298742,38.30665840559,-3.980579306701584,32.75749363850564,1.6100243953213509
0.7773943616120842,-57.830227864661154,-44.599184015064786,-60.68579304388581,-41.9778909936964,-34.087293338425475,-35.85116084315522,-59.20833814362232,-50.61966049925114,-52.42892239649035,-6.097618123071486,-20.729709858802714,-59.27242173364413,-16.205477356606856,-33.95542459102937
0.7813008659417932,-91.73699404893179,-81.71453828469743,-83.15132081157893,-85.77531788989421,-69.12492014773086,-84.94048200176412,-104.44893574696654,-84.56031289986633,-96.31703511445659,-58.96282747765328,-80.60257475530302,-79.36461610419776,-69.30384691735703,-69.55478237179905
0.7852073702715021,-105.29371896531471,-107.37417063526647,-93.38401898022025,-105.18386471281644,-105.1816317264534,-107.75016406963354,-108.85706664090573,-108.20133593771266,-113.59198004295831,-83.82973257578399,-110.93021183374604,-100.19148938293938,-87.41478477312104,-78.21857472348161
0.7891138746012111,-84.92808096571056,-93.87718577001208,-74.57742022000774,-95.07331754675926,-103.79439190841413,-101.39199796975758,-91.08219431893598,-79.56649036290943,-91.5500204994807,-98.94310954255849,-103.84579127005198,-75.57880280187527,-97.94596157433683,-69.02488829506939
0.79302037893092,-44.71872794327957,-50.215775011280776,-26.085956944335685,-59.00729587140085,-71.68387345848417,-62.833606087258985,-38.74573968046531,-47.79496177919601,-49.261424174020355,-72.88349105512683,-79.30902757255993,-34.55447623722547,-59.7252123187827,-54.00754105469434
0.796926883260629,14.803106211422438,1.1563421065127146,30.892016593491007,0.06456522458755964,-18.06523661920581,-11.005055258875219,24.15628700639885,11.136153774592438,9.356084280073624,-23.377960456311865,-26.353543426779677,27.31512251635616,-17.423159700988535,14.175473571494194
0.800833387590338,62.03585237818644,63.56114915361332,89.65749512385533,53.380798297657975,54.91120532435063,40.8495035172818,64.95997401556153,102.8064229288967,73.05220610637699,39.47761473998166,38.89704676700462,88.85837218737467,10.621021842923966,59.46127502186779
0.8047398919200469,104.41946669369204,99.21386264975068,107.88389804660054,107.04941405804314,94.51532297189769,96.35637826165828,101.35116832450431,100.97636926412618,101.8010469052849,77.5687498539643,84.55626076881983,113.65487142619318,99.29847287936848,97.02689321551462
0.8086463962497559,101.32668334359502,121.1608063129492,110.65958217828067,103.1102885172665,120.53541360923217,109.43960852027595,99.9511218934554,115.02551515998644,114.4933227006185,117.87452035800969,104.95184315371559,113.42574931354113,119.05428573594493,117.42098353280423
0.8125529005794648,77.64862540358182,89.07886715453452,82.01159312301448,75.40467875903765,102.09972366843314,103.82684917552537,66.82713338807558,90.00488787596682,86.51500450945159,113.81383248556133,100.89048349120277,87.90464389404248,103.04527767800998,91.76145030643004
0.8164594049091738,42.85108442935815,43.617221355406706,34.90681639798768,59.275383858952296,59.478067356229964,70.43691226859322,35.83648977691939,38.498108606965125,43.02815893960651,82.2007871493623,78.81106558891025,41.52778542965551,61.837572823441434,51.54891345499188
0.8203659092388828,-19.621556728180423,5.081953383658849,-21.55994885687741,-1.2766791786407499,16.76586916234359,-2.2433118535564116,-11.199807912992213,-12.765086365713891,-16.180887386833245,29.667098373317156,24.714480584078196,-22.568021524596727,17.176552148036887,-6.617842713257752
0.8242724135685918,-53.87510397219246,-50.321942767776626,-63.310323710303805,-43.708418401255365,-34.343796501664166,-48.6631488793786,-90.2499608615436,-45.844750185212874,-58.45284272988739,-16.545063515828602,-22.623074832761745,-61.089388318492624,-34.00185205906922,-62.33799016132961
0.8281789178983008,-61.21216610487737,-80.14156645707052,-76.95476420645518,-61.62556851694376,-63.6336922405131,-71.68052858845645,-57.38723232329695,-70.82105236355129,-70.70901710440985,-65.49799594870582,-56.073287080259256,-87.78039710290385,-73.43980862104044,-88.44901139318216
0.8320854222280097,-51.090863423678044,-69.92908977953883,-75.55307044831744,-65.28709431771956,-68.27178338685775,-70.26673920952628,-34.24367074587695,-71.41336345727888,-69.36694278630816,-79.94707291821618,-50.841974342130314,-76.83482507506817,-81.32418956507183,-81.72344457736138
0.8359919265577187,-27.911311656216505,-40.24023725552547,-33.28663024141939,-39.31255647649859,-53.583477277270084,-55.937860761997996,-9.491731023104556,-43.821814976023994,-26.48319476092884,-64.42553772387491,-40.07201251814711,-36.61142563927903,-61.95010005528285,-56.039499684309064
0.8398984308874277,2.9811511011581033,-1.4956665140000913,8.965266018538482,5.92635358888027,-14.739808632623973,-6.999741020861569,-21.014066965868878,-4.641076214287178,13.675502331307822,-40.37500421569112,-0.8624795618055874,6.353356154824803,-27.988524867079665,-1.9831465769926275
0.8438049352171366,30.367380430604953,36.86951589445501,48.29647851163305,17.6498989103843,28.931328007888993,43.90440525531295,31.400925305923234,39.86104733929406,39.619260476220376,-4.9776404759061945,29.544661655436727,38.92318618952707,12.687287697058961,41.9994282565508
0.8477114395468456,39.19548129183989,54.26723667801522,69.52247160560486,42.80774458733327,54.65718145736114,75.36849648823251,45.09570358881639,45.06196755235795,65.16424052101958,35.24041231094684,53.435279886044256,62.61061702458062,44.34812194903507,58.01408291536936
0.8516179438765545,23.04911922890617,57.87780412637886,54.1533575770055,42.48014221175461,62.004620908313115,72.35070244651685,25.298063843023787,37.19845817381797,62.53677854516982,57.62885865346381,52.789828006194426,68.04530775071714,62.362599334165616,78.65247568285494
0.8555244482062635,11.538010769498083,32.180195464675215,31.439879618860072,21.707226239315002,42.47985767404494,50.164222860664196,11.857502226858415,21.562130527952334,34.44756576410215,49.547478914881374,40.46364833232276,38.63121819154861,51.9375136129414,61.42925257980272
0.8594309525359725,-13.255857605642312,6.789422642224581,-8.060564494377157,-3.757219707588577,6.0373917405736215,12.996955271263904,-16.57289845843799,-12.199249304762695,-4.27398627870023,9.205858722911207,14.396128135219172,-7.98878915381768,9.320445115351669,5.493324390830952
0.8633374568656814,-45.54551483286622,-35.675249290228265,-49.42914273129536,-34.411309919760576,-19.539509846895612,-16.811524848783378,-42.55020760699914,-43.29328547798976,-41.01909386538431,-5.29593735246835,-23.324580379538833,-49.34163321268437,-20.446462667806863,-31.31528659846072
0.8672439611953904,-44.69569386313024,-56.625481610440644,-74.94220632030701,-37.31123079345629,-55.94568677301139,-62.35554572778311,-38.32795294211351,-65.57222251429914,-68.28838590881648,-49.29969655740189,-49.122218069695904,-63.71997394379856,-52.69039241259184,-84.36264600252991
0.8711504655250993,-33.15960596027039,-63.58468657445949,-67.84686505960228,-52.16463088084138,-66.61040002260867,-84.3436083807801,-50.76202362084889,-59.1520695634684,-68.19071502801133,-57.103072914187166,-46.722101942086596,-70.69998891414528,-65.84899047266558,-83.12785615013439
0.8750569698548083,-4.601486430431422,-42.43561205270595,-49.119522888685076,-40.91204977315349,-53.4453873627516,-79.32774901743589,-20.191042538948707,-43.00843885024901,-56.514944281335985,-61.01224215825272,-41.24090494267941,-64.92165505187583,-53.44940214405252,-87.3187955585894
0.8789634741845173,12.04816366251509,-22.475678226158333,-25.608128514915258,-15.51603026143797,-30.01275254816089,-41.80099652358339,-3.1255508566496397,-20.28587217576311,-25.737969011447447,-38.59881578514413,-29.452931041937795,-27.375280882399,-45.29974680581208,-56.83707404841459
0.8828699785142262,13.706357076215216,2.4154460546194434,11.007403168958245,2.104077152329217,-10.709199603376367,-10.864315326427313,5.193706868935444,10.667466365638614,-4.584822012048632,-13.20114616425111,-7.754228421622511,-1.9984781368823787,-12.593965224201922,-13.92123734914423
0.8867764828439352,11.975966196608493,18.205278979111917,26.185816739017397,9.765927322547043,8.04411286627801,1.4473626451282078,1.142884323185775,17.986888083748468,11.164914064973114,18.152241463200106,12.940936299831876,22.75763308451096,17.5806988095416,24.257358387549022
0.8906829871736441,11.817901182229953,20.336348321004614,40.51040395949536,14.619318662108341,22.88625252581249,19.34251056721603,-2.6419201335247546,21.821959844844425,11.582716698757844,22.89427428860959,4.130416270448712,40.02936026555123,29.011816467682834,51.76681553131064
0.8945894915033532,-5.1708009571441105,10.729045461989072,32.752528109426066,-2.5266223816870017,15.124843274145558,29.08766623508587,-28.75073910732094,12.27133327263954,8.536442481562323,30.712852018117786,3.224933436091714,22.072314823373066,38.388921763055734,52.72557726131384
0.8984959958330622,-29.645160325812817,5.482470862831792,26.565145136110942,-9.742965601126597,-0.4759983054187451,10.292942225799898,-36.0640098088795,-1.3431484026951201,-3.7214319662421,16.390702854456475,-21.240211616322963,18.219709803650975,29.277980240797557,44.70667324250931
0.9024025001627711,-22.276671304447408,-2.489163101273985,-0.10037297466571005,-15.511899154871076,-13.545834182116128,-1.718114339007173,-25.839338884440554,-15.868765753475955,-11.90476624033708,4.441372225071098,-29.825634551861683,5.673218803266237,17.581617696206845,29.55108690883288
0.9063090044924801,-8.526823470692081,-55.696891745594876,10.420086960507609,-20.61724300345666,-17.91892918441014,-4.206907395712154,56.24696575366441,-3.842045038292687,-0.3670641458227859,-6.429418522345932,-22.252371278088194,3.48158668794781,4.567354460590576,2.2459387490919944
0.910215508822189,18.852272770173702,7.945050613992295,4.97639139803141,6.831595375385184,8.368053700691599,-7.991216654664145,10.791306647066175,10.128995050073245,-6.186456145368638,1.812110585607936,-9.324184557681011,-0.2568184971882248,-5.016205449288825,-4.110322438808879
0.914122013151898,51.05071700109275,36.497925492939245,23.7530125436098,27.41690704883684,24.401163435002534,0.6010915776468453,45.483404324192506,31.19871492703203,30.857270042401876,25.49257023353356,27.872811972560157,9.570769114231837,11.36198449676829,-8.972809459934183
0.918028517481607,80.28461296014324,48.252219017227,37.59140738534123,65.05821608232874,38.52050685156699,33.538162112661546,76.42095361661555,53.65800324808276,48.139570227879204,38.9963474613378,-10.142259763022906,33.128400543063385,30.27711433229937,8.431102850328557
0.9219350218113159,83.71005558007143,63.33097913227777,39.682260839586036,78.49913214805008,66.26346615851261,47.02074876226297,73.06492946771826,62.991122248348475,60.149000673053955,61.274071760270296,63.5708459174231,50.969739348084104,43.848741433660265,26.79397272039902
0.9258415261410249,62.96047266117424,56.14580235896266,33.031950623506205,62.818024116269214,61.07296538430717,70.4208417004033,62.175070222778224,49.29571126372873,52.45919991871543,55.173365279811684,75.58356328410129,53.193576260897146,49.977367531195924,26.278060217545086
0.9297480304707338,26.05687795194324,42.42863865935388,11.010382300935547,32.56383426040275,40.46351436893677,42.886457555260215,31.406393152235594,17.49918474768869,26.6817070472444,39.4122832580906,52.29528462169653,25.070851598428757,38.218682980863605,26.501561213822658
0.9336545348004428,-18.707042537514436,-4.718034755338678,-5.7505020566381955,0.9760614493512243,10.312321045312542,20.46265345014814,-13.611606614058793,-10.568426871606333,-5.646120201377029,15.584791406111325,4.023025832845331,-1.9450173071174408,5.170680468203095,2.9429657987039146
0.9375610391301518,-68.10604191168397,-40.67197108158343,-42.71886855930333,-36.645102635895846,-27.27602724999397,-21.225708654702125,-54.38026533677495,-35.870429553481074,-35.17660069669667,-18.850125987799395,-23.70271077298716,-32.106674082059854,-22.385727842575072,-4.749806337896652
0.9414675434598607,-95.39597200418332,-63.528711161291675,-62.98152738698546,-80.17398278237224,-49.586174322709844,-40.870260636420845,-79.85397003901163,-72.82293111589689,-53.82076155775,-61.00533167450879,-61.241966736633465,-62.73620624702801,-54.55128176667803,-39.27305366064177
0.9453740477895697,-95.12507843280211,-72.3714681350506,-67.15214553876933,-83.08833500661989,-72.04553992412858,-46.533737100760845,-67.69543813323861,-72.88999708348378,-62.182066178792624,-75.46487003348287,-76.5345529216194,-65.71435618304658,-73.06217068940674,-46.67196035225042
0.9492805521192786,-57.36365724610682,-59.337369852594605,-37.26473316187877,-66.2620040609595,-59.337611353307494,-44.554204573451486,-42.52097085010372,-50.30502748186878,-38.14187117131849,-75.14577419872442,-59.556533473807065,-44.7844247590084,-73.12627931142359,-51.641060120391465
0.9531870564489876,-7.1616168791689665,-20.961015719426346,-8.796998638073704,-23.093800361374875,-26.782550822475056,-19.02732822040096,9.947641106943266,-11.108216312848782,-1.2167462441031716,-56.14957116503183,-32.910545200851914,-26.512540123547815,-38.412637428551605,-14.196395059159268
0.9570935607786966,33.63746544140017,20.069602781793748,26.266346317323134,30.307916209537417,8.355027543600263,7.829649697784102,44.99355243707547,23.434132139977642,39.9016105788067,-14.691843668472432,15.554534200035194,9.095276156884488,-9.852092961577288,2.2668487071796335
0.9610000651084055,71.21052415093334,54.5234561110526,46.41759550927437,62.71062492184864,48.37577913529331,42.97609688263816,73.74083760442782,56.544992494273714,66.82213849161846,28.287870743329545,51.68125485342886,47.03692534756351,37.14068242147594,27.915580714382305
0.9649065694381146,80.52510183311966,55.35040604037999,58.0889454090132,75.83675488301084,63.126582747112806,56.482889568438786,81.2018901964107,71.2419136517716,60.190440823403435,67.92943838949971,76.38928288540843,59.64914799031022,59.336157219715744,44.3964773911608
0.9688130737678236,54.67466934419189,53.203357892737,38.55825349088545,58.0672653320768,49.49454944415333,52.49373629159516,45.441292816260166,49.89770847503619,51.46629737855299,67.30552265026314,66.60229750316147,44.996724924387024,62.37604634400546,27.641642891075456
0.9727195780975325,9.294410486258105,10.59383150815316,-2.0557262179500744,17.508610657666395,17.24479601459799,22.25895779771284,-3.196692587020544,11.354229531391091,-4.631565803754997,52.99835526649202,33.89288292165621,3.4262913668403283,42.12008434892809,2.4965062352564473
0.9766260824272415,-44.32061536220855,-34.70519941997684,-50.23234554441473,-36.03416049093049,-20.124514493673463,-35.48404085802878,-61.208750079783066,-34.09271452372156,-40.09102232658452,-0.3888282053883583,-6.851408170125378,-39.70263269917899,-8.978120151659247,-29.9731552801347
0.9805325867569504,-82.7787076217698,-81.98650196609749,-78.24698300179509,-79.77209346574404,-72.48624915540125,-70.79544060497633,-94.52669163430072,-79.42290010573406,-84.91058661804844,-42.62586193407219,-71.08737191188366,-75.26093953131684,-52.17238398009058,-57.53906848651372
0.9844390910866594,-98.5286580378815,-111.16777573675502,-89.07124521411225,-104.90681196360006,-105.59514875432166,-99.06409548356989,-107.41381637568585,-111.12240137642823,-113.53125875953674,-80.42457947522612,-109.948737397859,-102.42047783359233,-88.45201851358128,-89.56691690872081
0.9883455954163683,-85.43704228972533,-99.29758607541478,-84.29634713169378,-92.69560773936345,-108.15129928290884,-96.23183542352449,-106.43336044698806,-83.84711661490569,-100.44377699514634,-94.1205871428725,-113.67844363296705,-89.84832834534599,-95.0824256308523,-74.77657821463326
0.9922520997460773,-52.63513799901716,-64.44717923486692,-39.944652410949615,-58.54746741839383,-79.92869124965712,-78.1264769907509,-58.363391050474746,-50.67069322762508,-49.76811207244479,-78.14595726772446,-86.67571304187001,-35.99615242453744,-79.18640614623743,-47.54423190172125
0.9961586040757863,-7.494121415878476,-12.081626925887615,20.93105105554834,-7.933925221709059,-21.66636172414405,-23.643119463067134,8.113232577585295,17.993501993137635,-3.498868424815136,-38.58064209434249,-25.902768601173445,14.875938896232167,-15.95597852162101,-1.1327797253715288
1.0000651084054952,60.13605160345577,57.242119212183155,76.70714990302244,47.126619589686875,27.99400108578799,30.72605246070549,53.740941886308605,56.78002437677446,65.18045473673907,31.953272173189195,14.17085022774426,67.6254161713416,31.40300286459548,57.8662528256156
1.0039716127352043,95.665135454559,100.77625228250564,112.02223712714044,86.12854286828738,79.54972324325485,80.96493203735457,94.6308443567559,101.7932511662669,97.06935150454346,81.90114561966423,69.94625151399441,106.15493806059462,86.48032705136224,98.40962763753559
1.0078781170649131,106.84353859011503,115.5102353717119,110.04862378002404,110.74259121394402,112.04138758473806,115.13964500800077,94.1414367986283,114.75192235947236,107.81212400124333,105.96202979964806,103.66279070446835,118.29462420738169,124.42739798516548,107.60677844676773
1.0117846213946222,96.29050017780128,105.82662047322091,89.5151234719245,85.33276097342701,103.17187918395511,96.47733534462606,77.22200039277652,105.49653620799472,86.94943801920297,112.57290207630301,103.65042041758466,98.69972828652779,108.28480617076113,108.52837167262003
1.015691125724331,53.17411876130809,60.45731298250578,39.5314733474629,63.27864573903179,74.80876994322645,67.40413999294671,39.0109586719859,45.97138904392072,45.346816701780014,89.65196210361111,74.22592176996315,48.78282738542091,77.69959077218485,61.82896898971361
1.0195976300540401,3.330969977670956,9.23577220451188,-18.771821483579856,9.84514904748636,22.854855052455186,17.78385179622097,-3.157923720353083,3.1461946169828865,-8.524436210923858,37.48272669014456,32.31347503719065,-17.197041468645445,23.37813043866613,2.2584280609595337
1.023504134383749,-35.61028477454465,-37.29155440551656,-69.57400068683964,-36.373440721142295,-20.110594644517597,-33.21769154862457,-39.79913455657315,-39.88459707725425,-59.18523613916361,-21.100064804711693,-12.14312819407511,-51.50041501467673,-31.01856336162351,-51.93627395022038
1.027410638713458,-49.19752469743879,-66.86108523788182,-83.33261995647618,-63.95554966709559,-57.52865289054424,-71.8719094756535,-49.73964608593064,-73.80611680851159,-72.12103963638876,-66.07798364302677,-46.028351313784945,-72.7382455534548,-76.04539933101337,-78.9262418321711
1.031317143043167,-53.29495907237387,-71.30766075649724,-74.62147537545346,-63.23161306285099,-68.12030939167445,-78.67378614829191,-37.122709372162674,-72.9389638651708,-63.87845055996145,-80.394660759923,-60.95139775433863,-74.28011574176516,-87.56611898246184,-84.46337239724619
1.035223647372876,-31.670583366928412,-44.576768491144854,-41.09697662400921,-45.63916001167303,-50.980235808935404,-59.42806972685319,-11.630268690062223,-46.708994117371766,-35.807890742139335,-72.9310942370293,-42.91108077846578,-48.33690839958628,-77.93015900036724,-69.9071527954035
1.0391301517025848,-1.378270380915096,-0.43826266843606554,9.633977766408082,-9.359522828305396,-21.240703836281014,-16.24113030022558,6.559739155103108,-11.51216597340212,10.639050582068231,-31.991927741505876,-10.487337712915524,0.9352379655711163,-29.95063727094618,-9.033201250127917
1.043036656032294,17.869983768847316,29.763037211542372,34.78727326361023,26.241752840236558,27.74683205647659,29.594478893049914,37.08195802674205,20.49160623643873,49.605654770252585,1.686473417091464,16.045170242508526,32.13149448175423,5.34358828221932,30.57545198675663
1.0469431603620027,30.663582462335572,42.27902936867249,65.65573826135993,45.957282261164785,46.414251806756106,65.10678898360025,54.541385229612814,50.067895605595446,68.25561990103647,31.03540632006052,45.83203076888751,61.217201491390725,43.29297322512919,58.75999944893218
1.0508496646917118,29.83350981986034,55.73223372188623,63.382870436931555,40.97063346352696,60.51291382234594,71.18718917443145,39.15543011511161,52.5677769328093,69.08736759168939,53.63152803882056,48.87810179025216,63.31733805261147,52.111712168574336,84.33975341976691
1.0547561690214207,9.349234375561139,38.66065250473419,31.686430883420936,36.171734878758585,55.30875851864947,76.74909506712218,19.409670785662712,30.16045731729944,46.15996753320095,53.401028609180145,39.662537667085736,41.88575991038811,35.52419618180154,61.57198398006568
1.0586626733511297,-17.30816241738987,7.78802768853652,-5.915310029673717,-8.149887358081903,18.059557213879216,25.090474320454245,-13.336538148030233,-8.729176577202093,1.1724534482373001,26.958527897563876,9.194085213508608,-1.2227166808377339,21.475372515590287,24.30106552047368
1.0625691776808386,-45.14471402030312,-28.355622401065354,-48.042184054601336,-24.20703013284348,-17.948921143530452,-19.70136636776451,-36.369516715935276,-26.954963542308775,-29.96458723156948,-13.361896683399706,-24.56819858723253,-36.52306378185668,-13.275611149909423,-28.6854939907543
1.0664756820105477,-42.91609156041262,-55.33851735231096,-70.50984138505332,-43.224404990342144,-45.13361131552813,-53.44535784551718,-44.5878724337338,-52.87619999742305,-61.773950928324496,-40.94258267573617,-42.53418828857983,-63.9081237403088,-49.49506294591032,-69.18705563987118
1.0703821863402565,-47.60240080583698,-72.03570789694011,-72.77316086159037,-45.51619563243851,-68.46617746436067,-80.57362780525075,-48.16989366038917,-57.389371443887015,-68.34846024685822,-53.506768349223975,-52.24887524183585,-62.57616239478918,-56.31657804530401,-89.20309681677941
1.0742886906699656,-14.745991132157776,-51.00362313159483,-58.60753287208098,-36.8168289986676,-62.513174457636275,-81.55315295877361,-32.616251912394915,-54.65739848276093,-56.992506545910395,-52.58045401181291,-45.85780719703168,-62.66711106969283,-63.54336984344739,-89.00713912156078
1.0781951949996746,1.5717771139996115,-34.99197610689443,-31.95395896247573,-22.836635529377286,-35.33471114656213,-51.01867743341233,-8.43018524232116,-16.83169576470436,-32.84458161476938,-54.072118791776674,-24.958169878884334,-26.988948382382436,-42.321870248822705,-54.049176491402896
1.0821016993293835,12.030896970864635,-12.449868501704083,2.6432409837263053,10.848330507474145,-13.828344856826934,-28.223998476074875,-2.2538094601990695,-6.231945222250972,-11.188653510968859,-5.659664359410536,-14.041667402294692,-7.79181624438028,-11.471269925245508,-24.833244999180124
1.0860082036590926,15.306296245006383,5.708293932008896,26.50034679505011,15.309778137603688,9.941353187272295,9.904722912347939,8.413334494465566,22.053291334911798,10.903332261789535,15.116869239214951,4.882639090352917,20.84848263215205,19.11688134475692,21.41305562685764
1.0899147079888014,6.194586449724396,16.18923054072654,35.94581519780035,11.292674003919647,16.346229271989284,22.399171238204943,-3.032286229383659,21.886331654865725,13.525298966432793,26.549945947790025,6.934482535016101,40.737813779376495,30.529239068572565,46.83145790342838
1.0938212123185105,-1.9533203272059136,17.21251076353418,28.49112691907343,7.236118431862314,13.07859298860047,25.396703679339645,-16.743740232799134,16.720791073584603,10.61361562490005,35.4639900742732,2.245800590668819,37.374424038767934,27.560005718644835,52.20157430889781
1.0977277166482193,-11.317849112367073,0.7047710183519397,11.894003537997461,-4.9298184274812735,7.784538980432038,17.35040246682458,-31.58944387666549,7.078327737910648,-0.32216231033787457,9.929854397304148,-15.777241704387324,13.143063174124045,28.600645176884672,35.037999519708904
1.1016342209779284,-17.863957786832433,-10.622723844499241,1.970012626684182,-24.57369809188343,-4.254031393997483,-6.532532026195631,-30.06501505687686,-15.00081003311928,-10.506555902108927,10.971258689253819,-12.126000845523311,7.641103842727015,12.920633002847426,29.919166538360567
1.1055407253076373,-14.310845876316598,-14.13043329703366,-1.0395905546501372,-17.318565685626723,-15.123614008770865,-13.059241511226542,-24.297610370659726,-4.253635805458117,-9.20020201328741,-2.549154382720121,-31.072607573806508,8.801255385773578,0.6627572445347607,-0.6771171677396728
1.1094472296373463,5.748566685515729,-3.668370678685357,6.931988746856205,5.642740460464463,-0.7846648238519269,-7.940385151428855,8.497264891923265,6.961849694848501,3.884288148006804,6.192948903354189,-10.838629384307051,3.354250011043271,6.163252421910268,-3.6445929656802076
1.1133537339670552,42.11039009964215,25.492510349155587,23.029632883124258,21.81226352371339,16.05180823845229,9.29955919345101,42.09572604494404,31.900497143503152,24.31399806792796,1.4637250142058953,15.003778284773162,15.247998809846928,20.82818647887933,-4.939841139927012
1.1172602382967642,70.07249080264143,42.45836253902792,34.593397001542805,60.243932163119915,37.957190395835816,22.448900030264173,74.55366093273794,48.81478753330093,40.56889939350749,35.94728701185063,42.339986193909596,25.13469512599582,23.723773556346636,2.469701663272395
1.121166742626473,83.41748440600676,66.653412896842,46.816055032127906,79.09910923628134,61.51926548194414,44.987120733270984,85.08594407779465,59.00359080546343,63.4330173282803,49.3310505799613,68.48534514815792,53.25552249155278,44.22408201307334,16.158605285425526
1.1250732469561822,66.90169147297418,56.95334139947677,39.09744425025466,66.83170752752434,58.51690451054158,52.3728371368575,70.14192578409846,53.44071938343836,62.24980395831367,55.75567586973258,77.05155614115245,37.49909152761566,53.56619354699656,24.097259270515647
1.128979751285891,39.0493398428654,48.24432270792644,21.73757003624487,47.55355614393466,53.794241710731576,44.599334224728416,30.885367961610008,27.69488576326545,34.82565697246386,53.63118236386097,63.10433047371082,29.35240534803681,54.06844912637327,30.578211765166227
1.1328862556156,-16.05730044309614,2.138225812802559,-5.376061845873342,1.8216420248402176,18.133144128753408,25.556291779846923,-11.614757318205061,-1.126472216099022,13.462446362193512,25.772441610705652,18.91083532720827,7.843817002362738,6.709201834209701,27.05511598230391
1.136792759945309,-46.46079728254314,-35.35988641052763,-37.71439356176849,-43.44451129920419,-15.213554307084017,-8.128512776348543,-41.40088774465157,-47.701799038432206,-26.682231880473612,-11.898407864065305,-4.79222107575097,-35.70903943470203,-17.327264647838426,-3.9666611938399363
1.140699264275018,-93.51778585049934,-62.68449035873213,-60.50492371346742,-67.87393821518889,-41.31791686636098,-34.64027844705663,-76.49330223018595,-70.0038672860412,-54.30940886336505,-51.40612907949746,-52.63856587139693,-60.41201889472042,-62.288887730342196,-19.225881218984025
1.144605768604727,-106.45001991981493,-70.25330961168159,-68.62562138562791,-86.68414276917672,-66.70061337356098,-57.40107750283946,-78.88372026742373,-86.15451997120715,-63.37273824067442,-75.43457587819073,-78.74510474809952,-62.524098171052955,-78.10280026867925,-43.739045378882544
1.148512272934436,-67.78564233127753,-52.51143503505976,-42.7289511721085,-78.32444209814281,-62.43874092227375,-46.608989770676594,-52.47807903156239,-63.76407170373957,-51.23911753607623,-82.76232039265005,-70.56960476581844,-50.11260948573079,-72.52641797544328,-37.102762844849345
1.152418777264145,-24.006457187175428,-31.505306966850043,-21.862211039161615,-28.99316851942891,-43.35693933907581,-29.493567830058296,-9.514320238527784,-22.186600927001592,6.054270404661761,-51.55419485879066,-30.70554757151644,-24.848877072153577,-43.09953812411578,-37.794255897936594
1.1563252815938538,25.959812401118185,13.305468509291568,24.755781864987604,23.52754381778115,-0.14455224902396235,6.791921899643372,37.882833000586174,26.524584435259964,27.406717637405816,-19.882538326167232,4.18328360774253,23.007359316927406,-2.3739410977829625,6.3890895623069355
1.160231785923563,56.96286223822058,47.458856416642504,51.243253297975826,56.916865045922115,45.13724998381032,46.384040405592856,71.71889284135389,43.92564382426197,62.82036716784219,24.67594242758418,55.83826560457998,40.31080262515291,25.302818836451962,29.34693676681988
1.1641382902532718,79.80247690234656,61.066321855998034,65.31261263034666,74.49802018126175,71.4892235565648,63.12276369494005,75.93398817501325,68.77124380997813,64.2718219891425,60.416794359543324,69.37716305645853,57.77265333344671,57.213016034286454,44.86083486391175
1.1680447945829808,69.22970475624167,59.396172820049685,43.04014807755308,67.73257612153202,69.58986410237875,52.87211765362826,55.576921113550455,52.7817717621445,46.93248032250236,65.73555038077279,70.27506465901803,46.347757106297955,67.88778832552404,29.86391285650325
1.1719512989126897,16.160689109315193,25.367480251298403,13.627960708597376,-2.4622901561010693,34.593077285037985,26.164263882066162,14.89231830354084,16.840921935088797,14.310420520994485,55.21621382635608,46.19462251095359,10.038804233375554,42.421216666360536,15.787311190765472
1.1758578032423987,-32.269821306379725,-23.257830647084933,-30.705949861059494,-21.05880922664834,-10.476804663707197,-15.069566989295302,-42.03778630995452,-36.3778635205196,-36.4713646687272,6.7097887174319535,-8.465249016999211,-33.329554356951654,0.3128426124514867,-20.278021935133527
1.1797643075721076,-71.77232779788005,-68.09609305385435,-77.6743875236674,-72.99108546347831,-57.68658295310407,-74.11299509269301,-96.20751444347376,-76.14930208380785,-84.30600848815328,-38.25470458103091,-55.84085211455816,-75.43962629344921,-42.572955593536705,-51.64178986479808
1.1836708119018167,-100.63973607360582,-103.85012834044663,-95.81403135922126,-97.47926694854405,-101.62530718074312,-92.20271344506858,-113.55165529045017,-99.76015426924678,-107.5454258890439,-75.2539442421149,-99.1068138170455,-91.09894932682154,-72.93239425215165,-82.10178808862096
1.1875773162315255,-93.18386170592264,-101.6458679295284,-79.90834090850804,-98.95602562644657,-106.52008040974854,-106.03198170473836,-111.5972716319768,-104.66163436662953,-100.46931760098161,-95.00407350100076,-110.22666404525275,-91.29265963082774,-95.34756694612743,-73.16870247128342
1.1914838205612346,-67.8424057278745,-74.00637992842078,-45.701493734641105,-74.13046646936098,-83.81427721528343,-79.18922802444042,-69.91769124462161,-57.72853258141311,-71.56207803734783,-87.76595751891385,-102.28239216764561,-63.24148032245262,-85.81330889193383,-61.435598568059966
1.1953903248909434,3.5854942450710254,-27.417515394744242,8.377616616685426,-13.270779449689666,-35.32227940927418,-32.477007550187096,-1.9408142949999725,-5.78580698269989,-11.850593047771206,-47.75924257330991,-43.65950812454605,-2.8763257578144352,-23.760178025939563,-20.167531417138594
1.1992968292206525,63.58248155893699,45.81991355156697,61.99915229160845,35.62717566337637,27.081499982767653,17.100297453085012,48.49109157994426,50.258560073685814,55.50379206352737,18.978427522712295,12.286186086068282,68.76430782503921,24.902519741419088,40.116173179945875
1.2032033335503614,91.80758608361361,85.35760318011467,103.38736035703243,80.26517711108724,85.34691632973484,84.78325256319988,76.89164351526995,100.41643411098943,105.74865444999023,65.3873636489039,69.96412456748975,103.19306994049153,87.27952159383588,89.74271939171706
1.2071098378800704,106.39684835497255,118.88752742954158,118.756234888125,113.2816935398264,99.85919494274026,118.12229921596136,98.08194687461719,122.75367490450822,111.10978185050031,109.13623481023608,101.42605018958994,118.87251874873785,108.82943524818764,110.46169465947075
1.2110163422097793,96.7980481117078,97.81768272029011,98.26014101315432,89.79422308260493,110.27773169254267,106.14193074313305,87.27364709538553,104.88290886134351,99.74490070509619,108.67574145451339,67.22576418296298,100.98612586673981,111.85112636546617,105.43669771795597
1.2149228465394883,53.82552054522277,76.08509916743537,58.38416805376164,74.05266967748149,79.0285979099295,81.22281635244151,50.487853953614184,67.88310290819958,61.36445190546997,99.50472272677797,83.90392578934916,49.94094123630157,93.83174377139676,74.44161076059126
1.2188293508691974,8.844858643819581,11.836618720054638,-7.791827340444618,17.331005557606495,32.79111118991685,22.000320270830976,1.9115468034997616,8.170835220185484,12.806635165154644,49.0026151903914,41.91437150887766,4.0018764332332255,37.96932969291696,16.79025858256749
1.2227358551989063,-30.513911069536935,-22.46662235924496,-53.810940188039446,-23.842579259359653,-16.763136027614042,-26.346466854322216,-31.78704349559831,-41.71845695380623,-46.20133549386164,-12.024230081683653,-10.717144831786342,-41.386245143276156,-23.267815128177244,-53.30967218176373
1.2266423595286153,-54.97227784782384,-63.69167765086236,-82.20509773917946,-55.47960277968785,-54.2215845813532,-59.734513990784684,-51.340691121057894,-70.88593380421668,-70.63164315081275,-52.94772645125633,-46.56844184312938,-80.23608587169286,-60.16052542657849,-80.15620515003006
1.2305488638583242,-55.5638065970605,-70.69842460835885,-85.07750552381738,-59.149655378618796,-77.94084645194819,-77.6707891539056,-57.344470175671105,-71.34906619383031,-64.60622759220581,-81.40336620722724,-61.048595596191554,-83.89246177754542,-93.17307504021898,-84.3249436000484
1.2344553681880333,-42.96379436026054,-45.878559194206474,-57.24810149571832,-55.84468016372069,-64.21212296960712,-68.5305869590926,-16.921631417580066,-54.29476920983252,-54.99964934330716,-71.7116061959518,-51.65404079192557,-63.278086563931495,-88.54728684148913,-66.5359601527921
1.238361872517742,-3.3216929608028316,-15.818620596226586,-9.779730244364265,-9.396767359511724,-24.593209065161005,-19.615456704572765,7.984885396423356,-19.691285658113326,1.5008523555179822,-49.883854725732405,-16.781846679991798,-14.374728640894983,-48.70257475580711,-29.978158483311123
1.2422683768474512,12.916492353117336,20.122803474911727,33.07785473536521,15.707443767667653,11.460985750549543,36.33042125202381,28.28415485544231,23.761123995602766,31.136721460083468,-3.3758255402534187,21.23795841587007,25.745230275582532,1.0934247004197175,19.91169567649916
1.24617488117716,30.353534989584162,57.420581236069125,64.32011402511644,33.60536519241964,36.54520191462915,53.16585776632392,49.291786760327575,38.72363996835145,68.4434773561184,19.39816781529809,58.4442568500595,53.757739289044196,37.019698220038684,67.33629828061021
1.250081385506869,35.96202410862565,62.56554237426063,60.30799423978944,42.40478947780989,60.44192364004999,80.74965659795745,43.49765246291748,50.849945321808185,71.7183358720632,52.13753255972107,55.63098209239057,66.5552847571753,48.00653518800637,72.06680762031263
1.253987889836578,1.5793046753214668,44.77418053057526,40.42781873716536,30.803738868540137,46.92628433395871,69.02695226357415,21.39295510319921,32.04918700241608,39.78629337543984,41.863908880616584,43.782691417140455,49.68283774843173,50.32477234224207,63.18584773887052
1.257894394166287,-13.438537178874153,13.038066898435634,13.727520751369003,1.117046145390276,25.93617239021744,31.67611275798987,-12.722078407990907,6.914177654325648,11.404293690310496,36.2956719567132,20.44810388677009,11.006013891185892,37.619129509149424,30.903318784062392
1.2618008984959959,-35.55411347737761,-28.91399953728781,-41.238216470852244,-17.163219536397,-5.735914756189001,-6.008786207053636,-28.91581543568764,-29.258976348985367,-28.81869808087167,-3.6457511654332326,-7.7571187351479125,-35.236558033374514,-3.004860159831397,-10.48151894841731
1.265707402825705,-41.68998783852367,-53.3233551245413,-58.5544961542941,-47.75136734365104,-46.69474711104921,-50.0500645968794,-44.41020089992214,-50.65731401488062,-47.92437886983814,-31.108680371677217,-40.76358462560529,-58.289024995492284,-40.30121255828678,-55.25310677937392
1.2696139071554138,-37.003383301960994,-59.24521712199134,-73.24430104446809,-49.14803811775266,-60.66421478151957,-69.08502733923689,-40.752137725329725,-54.58711131789292,-63.921215717538516,-59.90672443747945,-59.02754125623705,-76.64594665080276,-54.09453498908,-91.09124506555476
1.2735204114851228,-20.160832191151503,-49.93399365892201,-57.75933923147948,-39.7317160314549,-68.35334499711024,-65.10824123786072,-24.243548459335702,-48.138380521933954,-53.78278543273222,-57.2951749571429,-42.619383279700756,-76.50590200279198,-65.67914739391806,-82.5435315511655
1.2774269158148317,-8.86617233274955,-33.83355125116669,-39.125309904031376,-11.089830833022116,-46.507480106227106,-51.524180395515295,-7.4053045991033795,-30.793695661185474,-33.78700809126794,-50.56075194824481,-33.50498011131222,-46.895028157990154,-51.42968687013633,-66.73127658289685
1.2813334201445408,10.833114827137514,-8.606210316669205,-13.919017558990378,3.90086062454093,-23.83768773124584,-26.354905578133252,9.046257200654598,-10.674396540841489,-2.783397464496888,-26.653639559802095,-7.889013242085872,-15.586428101137212,-21.01576092316227,-20.981714263087405
1.2852399244742496,18.176270983107496,2.3093983477775613,20.25522464850556,11.933871348898501,10.625046591647887,-7.738622495968667,5.490067185796579,18.12415685171467,2.060578545352395,5.080311866416782,-2.1241761726497317,32.90839172339744,0.33999095542861113,9.523656838867101
1.2891464288039587,6.14639508930243,17.256920311965537,39.88726046797775,13.022390614330085,20.67167481278784,10.822605586823734,-0.8033943955473397,21.898852131291363,11.566882348212946,27.826658691173023,4.679618077847082,36.256776563716706,33.448526135057676,38.314688328825824
1.2930529331336678,-6.516855280212619,20.7998240678481,34.73408360886815,8.592844554958953,27.252168629469793,21.866981794057512,-10.77706326112513,15.619786058223092,9.250112525468815,24.518227999950273,-2.3224421559623742,41.185025289948264,28.64985700414111,60.31425664624779
1.2969594374633766,-16.817801941646565,-2.456555520048587,18.01595456941711,-9.680631788437474,15.045998099288239,16.63185479390693,-25.636911941640435,4.4855131838179965,-2.8401274634692117,21.159905335510953,-16.54204655272742,17.83733712048481,22.403319543111227,47.88448709713819
1.3008659417930857,-16.38036133006112,-7.133180258041259,11.327230822483845,-16.73824956316487,-3.6170147253250318,6.818177525059737,-41.28602669500778,-10.182354573607991,-12.146643699098737,14.709170850564249,-33.015805577054905,5.700582488862432,16.829551505541673,32.9187133255982
1.3047724461227945,-16.470724317349475,-7.786609577030697,-2.3361059408106097,-17.086027378257167,27.17233329591849,0.9946170067771014,-22.795551398235677,-10.470663475057055,-13.327938779509573,-2.6437104635210864,-21.824128096554098,-4.349968626532815,3.8368492261914433,17.135822946958783
1.3086789504525036,16.991181150123527,-4.240692191921491,2.7183652182759666,1.4874314549622656,-6.110673989959188,-16.290790588761602,6.8209125998664675,3.72469744972514,-6.5688153604774175,-5.0009339791196155,-2.602913426474629,8.314131329241084,-0.8190996561553836,-11.606315020793929
1.3125854547822124,36.173304535768054,23.01880786036071,5.2069812821739845,29.935810381956884,12.025210982060058,-1.7990697486649863,36.252887900421506,-37.06677130628603,26.940603733686913,5.532444264474593,15.796583686745834,9.870338442404242,9.111294208627838,-7.465047599299855
1.3164919591119215,64.54408569857397,51.77230976632665,40.60620583689887,59.762668289078604,44.03263582476079,22.037046461300903,68.56986978935349,47.738382188571435,43.82001881461099,24.906551708670044,38.98483748370759,24.238225814777763,18.052449948353154,-3.455174944798711
1.3203984634416304,78.81821623724211,62.435553642169154,53.243096221404876,60.721883300020366,50.96950328939,40.50304929210668,84.57846614183589,49.04500997708314,57.64078085225643,48.45783497595654,68.7134274867581,45.86611505753072,35.31001809279393,11.904726352568158
1.3243049677713394,66.8362310311503,76.87579082653718,36.248660525544544,76.34334786380515,54.63290946127596,45.528085126537924,69.9878761878944,59.809353575187416,51.65438284139193,64.04129885623739,62.268623218675884,39.70247783671891,43.21245704041088,-29.702794650298102
1.3282114721010483,48.22650886745511,48.8211349019003,39.04152646938456,53.36845171962885,49.70277211517549,46.80333894481488,51.67781514991282,30.063193554162396,40.11426953095956,56.77346704660095,72.60393488986787,34.530114998638965,44.08195280110693,40.01583879838729
1.3321179764307574,-2.8663302917748004,17.77564230870252,-4.538488579835192,14.45825724014013,31.451367571235878,33.4483357139802,-1.2580822628698005,-4.918623420182358,9.689168780710261,33.42651045759626,24.98623876524023,13.817446516523365,23.823346990618912,19.968648360961883
1.3360244807604662,-40.263946953723675,-27.17876325935748,-23.48433376621213,-27.935953489102797,-6.398404390632155,-3.4450218082625548,-47.145558232686774,-29.894458040132214,-21.78607758886547,-12.219578578739357,3.813133130105353,-25.305714085483554,-16.63966909844135,-8.349098381417331
1.3399309850901753,-82.91663539303212,-60.95482068560818,-48.67423907918139,-65.47429146409566,-46.41853507813919,-28.875540088882893,-69.36070621206034,-70.31864331422472,-46.2276737069743,-50.03303853148806,-44.43436049239033,-53.58388802836868,-53.248331935849365,-18.095461263172584
1.3438374894198841,-89.56681132686411,-73.62563927876957,-62.27281451534967,-86.44402976270727,-60.50387867465734,-50.604682164175486,-82.69169790076272,-81.96861124767821,-57.20494802588436,-68.21987271304656,-68.77781342755529,-52.49609074398475,-64.91800339010567,-40.56106640278196
1.3477439937495932,-68.41928400757789,-65.24272706185931,-51.516954965251685,-79.44578770538651,-75.34739907493972,-57.55204063258134,-51.38122347587943,-67.51456538038617,-53.27413567096594,-79.93242442092563,-80.44329296691835,-57.39046263123884,-74.11998020410194,-35.6087630524865
1.351650498079302,-29.978017168692453,-39.52917339590188,-23.863058948355167,-40.01774983482202,-46.835186645937746,-23.216377191085428,-15.88284065461969,-34.33584840468755,-15.759010788268576,-63.2136589234407,-47.557666668362835,-23.18921899179327,-48.42880798127958,-28.598919312971663
1.3555570024090111,18.133728529203793,5.410087474334281,2.8889883601582262,1.0864340924322629,2.159997867704832,-0.8439487461814625,25.410858004131377,0.46338810464022373,29.972423875676373,-38.27470993795215,-10.447489949644488,3.7874215390387924,-20.00820606559805,-6.176530671354669
1.3594635067387202,54.53045115024047,50.04489933275987,53.070293969413896,49.285995817037744,29.285211438351766,30.340420271031572,66.61085486859601,49.48913087622576,42.90280815739011,16.500940322148786,37.04414168151904,42.63609565237672,29.172111464796338,18.71208458366001
1.363370011068429,68.95551047995903,72.40117016116919,58.29464627412968,68.53385315240352,57.03255425790464,65.75191938229604,88.91587421186318,74.02339365534165,70.76847762441432,50.53657494136576,71.48092115029657,56.407132719807606,53.7130239177492,43.00855291438193
1.367276515398138,67.13826636960779,58.159045998796934,51.57424731743672,73.43504698335525,74.65922849446858,57.72124235554487,60.84894842628975,67.26365748043746,59.53053943616203,77.8446572774303,72.13703054141577,50.91866138462641,61.6730536782097,38.08255003282493
1.371183019727847,23.687001603455712,35.72719037883704,22.027070063490285,48.34370427746523,40.4587761989299,26.289160194869947,17.345482269131395,31.65942121734386,15.403165178362901,58.91454877483206,46.76089033602433,16.928043753910654,44.29036352464962,18.111427775996816
1.375089524057556,-16.3886582828529,-13.391307453881888,-31.65250646075818,2.432608433528044,-4.012074490154612,-12.933121177122596,-35.10763190280938,-20.956608515403662,-32.01925215675007,28.219156819822643,4.163485350686387,-14.724903043080005,12.830299506843094,-9.286385162933295
1.3789960283872649,-73.62918614839433,-73.16977487644556,-75.07716844730214,-54.520796033870575,-51.275454350600334,-57.08773928184682,-84.05190624674707,-66.32504197864485,-76.59685374397408,-20.535302173520762,-45.508160367398474,-63.41337064267605,-40.38870379880923,-58.272762022836666
1.382902532716974,-99.72376884116817,-98.9800846353772,-96.02838279764286,-99.7327902045572,-89.51299514964008,-89.4121851877328,-109.07421002970237,-94.80425892443411,-108.73926219562132,-75.65490981053624,-87.7762970558946,-88.59338187908652,-77.48987839664214,-89.48786757381761
1.3868090370466828,-104.28481706378903,-106.35697914919231,-93.25115067534666,-101.32682099590549,-111.16340595081847,-98.57265639264793,-119.5593476247909,-101.7512680991042,-102.14312278019226,-97.96285412867195,-111.82842946941314,-89.97153259670529,-91.00799208391761,-86.18257510319857
1.3907155413763919,-59.355275651028904,-84.74515559777156,-46.910336131177814,-81.62084004152051,-96.72497197570289,-92.00428203570983,-85.84966331178062,-67.43849532572216,-77.95669464247676,-88.70504035314906,-114.27258188055356,-65.93072483193687,-90.43374123585042,-52.38644354905785
1.3946220457061007,-20.94677474124614,-20.43318346985076,-2.4510072493588497,-31.068936604830714,-43.29072139493907,-42.89474296431552,-12.92290985994694,-2.832379217680945,-14.45877979804435,-56.63575192400055,-60.28801364796279,-7.811071466297092,-45.18025403922219,-5.716357709460331
1.3985285500358098,35.07284373497501,29.049619779121592,50.03841607552417,27.137299219142186,10.344516761661298,12.393314044404846,38.32149621042432,51.96741738406071,46.18239804933462,-4.546501470295972,5.248766675976844,45.40445332075329,14.54046435222334,32.129084316306965
1.4024350543655186,81.46126129285065,82.27822053264677,102.72344597460267,77.3357033434818,47.30834918874334,75.45952528590298,79.37836368399417,93.07615023690234,90.87975642579521,46.11666965269801,49.92648024136046,88.40774842087241,78.91419618261213,78.40370498500567
1.4063415586952277,115.20784424842586,112.87810785389358,124.20828929529036,106.49041279733554,104.21851647527771,101.3133971012591,99.92046526331418,117.58015769351256,114.2067199074483,93.85261508882935,89.49131862559295,107.0320693784565,107.61103667791815,107.61502114866803
1.4102480630249365,100.58523777279964,109.98414545852707,112.06376020518307,110.48918980071278,109.07871021947606,112.13215578056295,95.2850312753246,120.0210668394839,100.61849800288489,112.59454451495013,90.51072185112403,110.63276317500046,110.2187852707577,110.81943201897087
1.4141545673546456,66.58020547339261,71.81630477268696,59.00020495709903,77.3468180221269,94.92648519640471,80.72053675970822,60.18769865007653,63.66453969991009,73.50128947316607,95.8391943324237,85.92966674587257,66.00055231264827,96.01456034495178,75.25907937686078
1.4180610716843545,21.98307744540338,31.388626383684,8.29166881512932,73.44987205412235,45.99543780609345,29.870128749747632,9.54384371707253,22.276731683776323,18.065454363591698,60.58480997033653,40.48224844243489,14.700847765107518,49.09390399162949,30.06291016485647
1.4219675760140635,-25.201082677223155,-26.24051200541426,-49.83114456141605,-16.979861688437875,-7.790089353377184,-9.9338202516271,-37.37395996480245,-31.84610120179646,-34.27315322189287,6.618130853842983,-2.0530740830680925,-42.27342782742728,-14.626639689021324,-26.460244302972093
1.4258740803437724,-61.63988830860876,-54.84899866055888,-81.07938367638826,-48.71557869436343,-52.71987015914189,-62.593771214845084,-46.42231919243774,-59.06943428968654,-60.24632957472291,-48.92679387084985,-41.142138773539045,-74.20215024903969,-55.87107493234268,-67.08788053359716
1.4297805846734815,-55.13009862707124,-79.83615763237228,-81.86733954295559,-64.33933164861456,-76.84854562577635,-87.26535387596384,-48.54547534559227,-78.34133512283881,-70.5825490631341,-76.88230617322084,-63.16404239066353,-85.90922521525565,-72.687491081199,-91.29583642302545
1.4336870890031905,-41.51498860795794,-60.360950649345355,-45.23189196058546,-55.909002114149054,-72.45508083429488,-61.68796997677429,-25.776002764186774,-58.20428344387041,-50.713185561518834,-80.28927414810599,-60.7928185811157,-72.54834456265226,-78.13214143557998,-72.66343528940003
1.4375935933328994,-12.503269890521967,-22.212504414291303,-12.566568223743278,-30.551693620856458,-34.66768937967697,-26.432741265530666,-0.23198316048230705,-19.34796919869953,-19.687877844856747,-54.545468153459545,-23.29445813894517,-16.58856284687881,-57.87936870112398,-45.4020211755995
1.4415000976626084,14.372244287772837,10.166927901285664,23.851821861173562,3.2222645964517387,10.30227040254615,9.631337821448433,26.880202465546816,12.180514469143136,37.31816701876481,-15.098625791605487,19.42037793193813,16.158607353016617,-15.064355115172539,13.27299521698181
1.4454066019923173,31.844158277699563,49.84802186823188,59.11150478447725,25.256928092134395,43.94996657395551,58.32573946639946,38.572094810613976,34.93658759861626,64.66748650508205,26.75003506666287,36.981120826414966,54.93343282751791,22.05878365977179,54.44025376067405
1.4493131063220264,31.910745710806303,57.51308817109591,63.79471966498474,55.11961987180348,62.540112762871274,76.729262404343,41.669843758250856,52.96059013427044,66.13021754294184,48.663623219101396,63.61417750064894,67.93590085138936,57.58453568425139,79.08229504894655
1.4532196106517352,14.249508568456172,39.1500930176568,46.202832835485644,34.76456266571023,50.763343967131085,67.51044712659026,22.70642930247194,43.522968370776155,56.40852855732336,50.86393342909822,46.118361149035294,52.88791679183516,52.006076161881026,74.55832606829574
1.4571261149814443,-5.898305386881546,22.60061180255455,15.21014945720891,7.199122259149378,40.438950811993806,48.05391513666735,-8.752398429916774,6.924462389651756,19.83799881026378,30.961739699201924,23.80004935769111,20.262974676478883,40.00620051310487,39.50499331598125
1.4610326193111531,-34.287977678402086,-12.90734999954324,-27.171700630552763,-15.548524138764437,-8.996731688080708,-6.437998502532791,-28.405269367980477,-18.008059976368724,-23.65121868718557,3.6295900600196966,-11.36840932714385,-23.498240281958896,-0.2273248586851686,2.641931733110358
1.4649391236408622,-47.182878523079225,-33.58716060320392,-61.83358914633529,-31.399278949917374,-45.24291971698344,-40.80486141418164,-52.68359901833248,-46.86467415182149,-55.296434756760114,-27.219151666890472,-37.50669752657982,-54.01691443468427,-28.54495766403512,-52.694938114490675
1.468845627970571,-47.707613591569235,-51.93801450371815,-76.726258797206,-51.58493547450386,-59.464554267772556,-64.67038223894713,-55.586013189927215,-53.39400024474586,-65.74200940557064,-47.68464103575726,-56.605241550329666,-71.232426792813,-70.18972038821846,-91.53771857807341
1.4727521323002801,-17.823539961616625,-59.286908557619746,-60.36859353111888,-42.20860848072522,-65.61201433795767,-77.24819110856721,-39.84135188100521,-49.615957308155956,-56.89832906276412,-70.09079225353186,-55.82549010494116,-75.05737443055858,-78.84402275100541,-97.49720221851388
1.476658636629989,-3.0244386132254215,-31.702378071243036,-43.84031491368718,-20.249173632273326,-44.879111884402086,-69.37058823044816,-8.894095683210768,-31.061377289536285,-42.36433249586475,-51.204486905425085,-37.4485627630876,-43.089234116932985,-48.56289941666676,-75.45850131486232
1.480565140959698,19.70554446483873,-6.112672362608295,-3.817373699076981,-0.6496649578413942,-26.16891938822891,-38.299178513305016,-1.692317517236492,-6.043420473190657,-13.361165550750101,-22.561844843452786,-17.73740369972312,-13.266556646919879,-35.466343374106884,-28.777438262619587
1.484471645289407,18.97164492820517,-53.259780495819385,16.30499292973548,7.007394894712803,1.3189385330595123,0.7102766561430416,-0.6844296689641949,14.595110234613145,4.839703373150007,5.647246650392178,-1.0761484915510684,13.51343528559447,11.807802269819035,2.9490096452479624
1.488378149619116,10.789623168957679,12.093603031538585,42.99869331001692,6.142454068070995,9.295688811139367,19.223998285102372,2.276767488132503,29.025604298071702,17.699803038625856,12.92508224937734,8.8989082250759,32.37169715738219,28.86512561285567,34.048201776637924
1.4922846539488248,-0.09875400916548549,21.24783285590016,33.03254974881545,17.717275443973506,12.183922890110559,30.38780261589654,-17.274327768243186,16.356781917834038,24.559947409915186,27.633795098022492,1.7138118266050217,35.24942638852088,28.57073552710402,53.61578218847299
1.4961911582785339,-8.925966114637017,9.233068809929328,25.917007193383448,-9.17683491288157,8.26274328575452,28.153524803890136,-30.691137509346433,13.489947845438182,-0.5452413524296476,25.317504617183257,-8.588432521485274,22.13825858388177,27.207389064136922,45.81851290782849
1.5000976626082427,-27.337485578736022,-4.643314224959522,17.060326017683575,-13.799806656160252,-7.3689772111827745,5.094011705315018,-41.08028508249563,6.1556764761023,-9.85354064078297,10.550655723692303,-22.83054884467017,13.25505554819999,7.310506419260996,32.813479720249006
1.5040041669379518,-33.282110839838474,-6.822454120829883,0.2649956440736945,-25.163862703077942,-15.332754201999352,-11.787385311855106,-32.335438650057434,-7.7083693296933005,-6.292190952848594,-5.218965466580668,-21.884218943428092,-0.6920189494379696,10.017777277967276,17.53283706546986
1.5079106712676609,-0.43182276797394625,-2.2000630859347243,-2.8161264886213635,-10.950349480203496,-16.54274639108933,-0.40016104402924313,1.2176284796338557,4.703974623308736,3.392214608922316,-0.6828045277969004,-14.893398966631592,0.8726606364164364,2.917132258920687,-1.199323677087667
1.5118171755973697,32.13156843506306,15.323040606409783,19.94306928709739,16.70349209898313,4.505564925386507,-1.4332499899253013,34.312140574266635,15.79071939499826,11.799494069622735,10.519717656772304,4.233143187721224,15.929400897356542,3.3205433936952176,-4.604629297832194
1.5157236799270788,64.7896111564275,44.6577065540103,23.03951091220224,40.08647176818482,24.672949201407814,17.410400381526234,66.6502427768273,45.005788744425864,33.40438176466224,25.602387962514506,34.253847688386486,27.18154589309827,15.790295644142471,-10.754738608069292
1.5196301842567876,96.45522989004921,48.64104783879664,45.926573112275825,65.38556192903614,49.819587311089784,33.13794950899357,74.78827146228417,59.1877677071076,61.28191131230324,36.49816495855115,68.58476187727608,45.663341228486416,36.19384973097704,15.145761109564136
1.5235366885864967,79.71624574326724,71.03549850945588,46.448910288317435,71.15327956256594,65.39626974216343,49.17515549274454,70.6977889993919,62.62495732380214,58.288966995019535,62.70487950876795,75.29551527019295,41.42865779696602,42.50252834270459,22.824297956086447
1.5274431929162056,48.98080691056592,48.25549954127902,34.132675107793524,57.12076731129221,63.03595325231046,45.31506893416658,54.397589168953,39.63227808480741,38.348814181369086,53.65443849815386,64.2752643075668,47.32298657123155,46.77172938883959,30.744519293940115
1.5313496972459146,9.84233220017642,21.832328577729985,18.369368871435334,15.511206070483869,29.259227619888634,30.020704177538583,15.245891818299668,11.18801107784405,20.44152411590497,43.61993386755418,46.4921307472671,17.608222666106627,17.782312417749157,26.564846552172373
1.5352562015756235,-40.14485750382971,-25.767445177344015,-19.56029804013763,-25.715959131133424,-5.877555076933934,8.155630238451884,-23.064506742545422,-33.32958658065703,-18.01918824313193,52.743479382157915,-1.2444463113174327,-30.673787294143285,-12.12393683848827,7.644412523327761
1.5391627059053326,-69.45986041513412,-44.20731833922545,-49.45846697734086,-68.03988853107091,-42.94522336625259,-18.16462354231174,-70.44612032835232,-65.64062466541134,-44.60026395570959,-36.155786925968435,-43.517360364399,-54.23981515796092,-38.48800936997419,-17.695445182418517
1.5430692102350414,-97.5093596729907,-65.01468631988516,-54.72873394781735,-73.85984800625212,-67.7862937689951,-54.03472725910037,-81.16073881646267,-69.99769932792438,-61.29896763481347,-69.65814432882094,-57.0226537486503,-68.10668268798459,-57.09021509580968,-92.0571826336508
1.5469757145647505,-72.86223788378875,-78.98100937984896,-60.913156569427315,-73.365210713708,-59.74796914742358,-53.61867513015518,-60.31785173874006,-64.93082205271126,-49.5723750148788,-88.40051747222864,-69.98887404086284,-56.73849024796228,-69.78664626647186,-47.96393121225983
1.5508822188944593,-45.35244112085116,-24.61929882536083,-32.03365689868519,-43.982822494758075,-53.15826195733381,-24.322060648030874,-31.857975329758123,-34.80598043112056,-27.77646101206804,-59.864404775012304,-47.36179367376517,-31.549001766903057,-55.91191273810923,-33.91989183554448
1.5547887232241684,14.30819508552693,-2.7536860215299868,9.882808818362701,0.41401691886672687,-20.453116469975576,-2.8640633557536335,21.236277956206386,8.584644860079855,0.4078182986521437,-28.587890623999634,-14.76506961981257,-6.179830910306117,-19.790087716201285,-22.3324546702136
1.5586952275538772,57.55059097157431,31.856837514502885,48.53638596398779,38.90383105589293,27.86831779197529,35.58372009231472,60.59624102925635,49.43525682938843,71.62559708385555,12.962318811674692,31.667722008486187,42.1584716637291,10.15168260106046,20.35880926438064
1.5626017318835863,77.29601896037623,64.28489652660063,59.542270893027386,58.505980935653106,66.79025495541983,55.023105881184875,89.84521689492354,63.4187200271027,75.38896717985646,51.79374673219556,60.33346715433583,93.91031968372559,51.6501726705373,31.459350539940775
1.5665082362132952,75.42351349155828,70.53546354473747,51.0873576082814,76.00547934206422,65.81665582833762,51.77766554219231,74.47946351238389,78.26972291020385,65.14382964703248,66.50768541154612,70.45874663943782,51.63021663185406,62.789834518161264,32.513070018347335
1.5704147405430042,42.387220149807064,43.40748448001585,24.911885616370824,48.77998255548652,47.81070875262554,43.97746864305497,29.82445432672479,40.05153433158945,29.89643327101639,66.37382054528473,60.89951787938186,38.730940449022235,54.13727701720922,30.499005221577374
1.5743212448727133,-4.6556324058061715,-6.487003501556923,-17.98386979324281,4.7046529928283345,13.746427399953006,4.556811861841811,-25.717833400403713,-18.11565092931257,-23.989528447716747,28.917403022098412,12.763159477894487,-14.541123463906393,17.825685833291246,4.7124375480243685
1.5782277492024221,-69.64519183233605,-63.37851397786082,-58.97670926370074,-53.44407515938874,-51.23542903825586,-43.159865567440896,-66.90560316359804,-57.13337067578532,-64.42615776345684,-18.981564850192004,-40.696314002875994,-59.22213946452358,-22.899469495638158,-40.2310671264821
1.5821342535321312,-98.94274720337542,-95.91075704769692,-91.56279739331403,-82.94291818049999,-76.80606362351097,-92.3067070928619,-104.31395721992193,-102.12418363972094,-107.87940309881662,-66.62995080148235,-87.41757817026861,-77.88631959003857,-66.30295841839573,-72.80329169158125
1.58604075786184,-104.94339975926506,-110.41717608815861,-95.68978715777942,-105.8983049354777,-107.2362938229225,-114.2870067672806,-116.27596043265191,-101.5528230053252,-106.89636998421642,-95.40049435907846,-108.56603481398287,-82.93413596412846,-96.20350886535465,-78.43858710628324
1.5899472621915491,-75.92758546898447,-79.238911265806,-76.32357515485617,-126.70673139664311,-99.27024494080183,-90.50310543970262,-88.24346000023525,-81.46808792189006,-84.67241827286192,-92.62076145986616,-112.65019603569073,-85.46816069344305,-93.50628777398033,-72.07596255124304
1.593853766521258,-34.078841028751874,-47.76535049240657,-13.200532606594782,-46.36019647606321,-67.55863583674109,-58.15378741179011,-34.197794152911946,-31.648041961585445,-34.79215668500016,-66.96844134245491,-71.59562773969465,-26.063005354305663,-55.19468643717902,-32.66998059553841
1.597760270850967,30.043612248364788,26.902368396695987,44.46371293848884,21.266312706817722,-6.054788469302469,-1.5312697823057637,33.465211145281344,26.006523265849495,22.656690969917605,-0.3809108928933753,-17.16010771556208,45.431666169042366,4.988873643010643,20.282054199033087
1.601666775180676,74.79360176591335,63.31962638776359,88.08376684526552,66.38996364377006,59.280692097917964,55.42450756226175,67.77247692861582,86.48679166338351,82.51302253336465,48.32887267069855,45.66579451515542,90.7815678457728,54.22058519728947,69.09284857470684
1.605573279510385,100.63625415623018,110.21600701196658,113.68616545134917,109.32033367397578,95.16354414135435,102.34264691032895,104.55034942501894,111.02015561155974,115.77127687803903,99.72221418071663,87.49078187323066,119.64408590009641,115.94512000251642,105.2475591989783
1.6094797838400938,95.8233535326694,118.06453712510833,106.66041198579322,105.96681179626152,112.32784187336037,118.0586605806302,89.48514146345062,111.52312094853622,105.06942915290443,122.75173517563002,102.86951331956844,110.75344139146479,122.7687393679842,105.74808178270244
1.613386288169803,80.35555082592654,82.35199717668327,70.99037287515952,82.67363128912426,89.78519808377189,81.11047428744727,64.38093972059538,81.73551068823437,75.31026717472332,107.84023563331814,97.17018816814569,72.91912260280235,101.80530816884789,92.37244371751038
1.6172927924995117,23.33729258297818,33.04985540182,22.779145942634315,39.9156698141979,50.00710525441803,52.23279042007251,19.07035684222477,-37.07479518448561,21.60731073697805,68.05270753524134,49.35789961757058,22.80950350740554,65.3352135841481,41.20325794032065
1.6211992968292208,-16.910244935355205,-12.773478353617305,-33.713578802955254,-5.584188014502224,1.7669225155042245,-5.9625236305825995,-19.28362223134921,-19.092907548031658,-23.554712562989394,12.240920426515375,13.202505591878378,-34.666424018590256,6.576647340683502,-13.21546935492303
1.6251058011589297,-45.789535970984225,-45.8226085141531,-80.7411897156305,-36.55224895536865,-50.86869740160156,-50.90280317847067,-43.07690014024517,-54.91399960103761,-64.91927331263797,-30.29419213294007,-40.818043242462664,-67.60190581016586,-44.54935909912213,-69.96632844600607
1.6290123054886387,-52.992540121295406,-70.20246818218172,-88.1151361039391,-63.40958454264394,-65.95877138711396,-71.96794056618741,-45.0654962682425,-78.88582661113584,-68.16988982193652,-76.02458769449038,-57.21641481392896,-86.5610082772154,-82.75950069016659,-91.47601860714212
1.6329188098183476,-38.88251082335681,-48.46777423188314,-63.910138681836514,-52.82433738908078,-72.88302242918331,-66.88945345591651,-35.79287693235208,-64.82892684456019,-66.4068362861617,-85.32202195448127,-55.047784437260304,-71.48648393914029,-88.75405362007646,-78.62162188513457
1.6368253141480567,-26.421613897292957,-35.09654772167862,-31.210414675174796,-30.601172642462007,-42.57744057213571,-37.41423642369501,-5.768339648069486,-31.012730824836478,-27.95751374730726,-66.38384519392841,-39.22728302161606,-41.189829868767305,-62.3345641635388,-42.25442879947712
1.6407318184777655,14.479904327145807,7.124728244905698,27.786254901653507,7.6228538480472245,-5.160174024839217,4.2572380186121475,22.8293338220474,14.753509190769645,27.77601440519653,-23.3756100694696,1.1748586072637721,12.514841482678396,-13.43743647537178,0.23481725000593778
1.6446383228074746,23.51125159051801,37.849571543742684,56.520355818334444,32.58040788368205,26.50498786535426,45.94267627004102,37.41138895942861,32.89885670217647,63.36606868371628,11.708214391336135,37.020716395720456,42.45046719621956,12.465679238765874,44.51620559142071
1.6485448271371836,27.44596374040175,57.85770703482698,68.50751039391082,64.52881936666307,63.763972437303416,69.57476688649652,46.86441040776556,51.943882100132896,65.39953262957805,48.95061655070809,54.751412808376706,73.813670359709,51.51963443497899,72.73677686733066
1.6524513314668925,26.61439462168574,50.85253581202817,56.630481483929366,49.42963691547687,55.86604032361026,79.26658466964189,29.33084585289856,45.2794330582354,64.43425950318405,47.3587995510145,49.885619150631754,61.21603592900279,61.13873863330137,71.47757172988645
1.6563578357966016,-4.593081211853203,26.047220649943224,18.340699972589185,20.616211691193953,41.866441226503106,44.180423570869,5.6040373192811614,20.2239696821842,23.372066013657676,45.132715248833094,42.73372881447873,26.409229193049455,45.30630069022538,46.33840064135736
