timestamp,AF3,F7,F3,FC5,T7,P7,O1,O2,P8,T8,FC6,F4,F8,AF4
0.0,37.43523496601636,30.139390125037618,60.20054626327517,51.529908270555374,43.87513235537174,42.14989000345405,55.49134885311318,66.85173253011318,67.34509589939103,44.05089523329237,49.322810829748605,41.07548976453356,17.824873364617908,39.25704111813273
0.003906504329708966,54.34176042096326,108.01376091712567,61.95807943065224,62.88890093911188,55.998869998356845,63.148903021360894,69.74462973056194,73.93077042705923,85.33479181052718,67.11577891258716,69.26774064701179,55.082198157066166,40.634349749508054,56.62618867311929
0.007813008659417931,70.78988011886351,60.94829224907744,66.39251547953019,69.26996339463344,75.68169889041786,76.75132850846471,77.5356154487175,81.1554886008595,87.24828285748131,73.83778464711897,81.45389585375821,64.38815965566829,47.89502637855584,68.65533802506583
0.011719512989126896,81.28653698814843,75.87317292873473,77.96833224747233,74.47974476350537,80.88755720938046,85.11331863072056,91.29028133348066,80.05859316285243,97.89227480404095,85.82390563854878,86.66587595645224,72.21876983419864,51.588514374274595,73.00150579183318
0.015626017318835863,72.16382545005786,95.79014370003064,67.10668524028729,67.75656587358515,83.8916051336405,80.2200499795663,80.33714760978843,67.899804925299,67.40236145675958,81.68187691687761,66.20046076561185,65.73305350220481,61.75581991591002,86.11672414511811
0.01953252164854483,64.63651353486108,83.16590207402926,69.09779775901089,75.34296071537149,66.98454429506319,78.20003527144682,72.87674546077274,68.15763398026644,47.58967408072503,74.67066547351487,62.18083204891187,66.9601977027308,66.9536004137581,73.35374058119721
0.023439025978253793,62.87265859648616,73.94706293439937,54.1634985326766,58.92682510187071,61.384101658349024,64.75904807403309,54.76854568834479,52.17597714880626,56.562032286783136,61.58514681119425,52.31205110895968,51.0507443595707,62.52375988727408,66.6831294483029
0.02734553030796276,48.642794866795505,55.49306880315923,24.732577239617136,39.43415946546521,50.50859561103471,42.74841165274865,44.17630429655635,32.91264564357635,38.679205276114615,52.9819970167321,39.223575039618005,43.41856885455679,52.642668544998614,54.711929949745475
0.031252034637671726,29.048299753473593,46.154175426982874,29.81128707659279,34.080566912495264,37.52323020388778,38.14059361494714,18.851783437127995,19.456879919012444,12.340246307574343,37.9764705386691,28.184635781916093,25.840459448783818,53.96609686427689,44.26947129929843
0.03515853896738069,19.422734647854448,28.450671381307224,1.4524215582316495,11.264232381846861,29.147635373910337,17.610663460898763,20.070653496534234,5.9257082096968805,14.520846614124089,22.91911617303351,15.737799586068487,28.790716171501796,49.49976706063718,22.17299448617735
0.03906504329708966,1.0331702857054719,15.148568574338416,-3.7270398315113633,-1.19261899779959,12.030055968377404,1.8347657704585316,3.4284222940250606,-8.356646640528803,1.2069775978359027,8.650623670145666,2.9378851221976445,17.839247043581768,33.80427132841466,21.120926574879824
0.042971547626798626,-15.687769392344798,-8.857632256303916,-12.288126511513052,1.4660074524546127,6.056989401788566,1.0350015690535042,-4.512390882295339,-15.734636202712258,-14.573390589020663,2.4709610905923345,-0.06796409892103572,8.687782383750267,37.905430433331944,10.740607737956804
0.046878051956507585,-20.121104804250006,-12.427336904249163,-13.350307917000094,-19.28331047895039,5.24911056444623,-18.663711747783555,-15.949986938581338,-28.826524230060226,-24.341191477959768,-15.031060224871739,-18.480875154065348,6.789165899022423,25.342121758686975,1.098513358384797
0.05078455628621655,-26.193341817252346,-16.16139310400407,-18.077215055618417,-11.52091128353867,-13.164807324856353,-23.49672918027233,-24.648949838627136,-26.775889935808674,-22.59344070276807,-11.363448741945955,-24.97946078078931,-6.97845362633421,17.654017557437925,-12.216533263534817
0.05469106061592552,-35.3682611214334,-23.212649415898007,-10.02626629454628,-21.054000674114953,-21.451143980338834,-15.263158037803203,-16.341784403008372,-32.16003971690946,-27.155861145875306,-19.072180667695612,-25.59810194467152,-11.794898633261056,9.665887142173409,-13.742557503600311
0.058597564945634485,-21.202438802991296,-33.0972665839004,-30.51466519238354,-26.449989917706823,-29.482163128714053,-27.55577859411129,-25.993341343321507,-28.82516457485768,-26.98638634384792,-16.98856787917427,-24.408758543138553,-24.636857354620837,-10.249325733733416,-32.47113969920412
0.06250406927534345,-17.695996714058737,-41.317283930211914,-17.800264235604033,-28.80769728570479,-30.679190888886946,-39.08857166541473,-34.85779613135286,-36.55023437694903,-38.948994630095996,-25.555672504336176,-15.577132421543757,-10.27167010641305,-2.216685794682965,-31.519720200861713
0.06641057360505241,-24.574075985950234,-34.170255402293414,-26.639597765101097,-33.66926050318349,-45.697782331757175,-32.53510812823123,-37.94646635681376,-32.00651400640607,-31.572196098994254,-23.86267616489666,-24.233355608903366,-16.874678714165043,-16.187486000812648,-44.55862228000612
0.07031707793476139,-22.29536669365421,-41.63128937242999,-20.253812863508443,-37.546676303487274,-46.11937699098339,-34.55628002690531,-26.256738454032757,-42.769956051558765,-37.7884082624456,-35.642501886092624,16.606205534242484,-25.273394309299107,-32.4112512339298,-46.50752587793557
0.07422358226447034,-16.978019994814723,-34.17600868937663,-28.53211532527169,-24.95938583743863,-57.39347021899617,-45.0356391854003,-40.773911908643925,-25.798648391744067,-46.64961250441516,-50.71025766726403,-20.016972046727787,-30.904227444852186,-43.01678795245737,-64.93472951480247
0.07813008659417932,-7.01504009735368,-41.71928194712455,-16.698555512204557,-48.181840341985236,-60.48814136678965,-41.23003768997839,-35.17918425704799,-33.10020694123099,-37.42873423596233,-34.60683051892377,-24.096540002586735,-28.107581770925602,-59.639084038294754,-50.945235254919126
0.08203659092388828,-9.852257502291113,-42.43624550124077,-26.0802494845024,-30.76017345908157,-59.20146144250549,-47.54486652414408,-37.29115493437783,-26.47981678986983,-32.7765204244987,-33.3730189703809,-34.00450897407449,-37.178517915272636,-65.73493439869725,-54.53422450320375
0.08594309525359725,-10.625989656842435,-31.14567338796877,-18.77168035230891,-33.516488761709304,-58.642139019021435,-37.235502952500084,-37.35193311605396,-29.00021023091976,-28.70254134255094,-35.01992452519612,-31.95835217411188,-35.17226636543805,-57.73681560332565,-51.76149853365145
0.08984959958330621,-3.4005946954979174,-27.290402868334226,-7.637193631664737,-26.367293234821798,-38.95114255052692,-35.372418477648495,-25.879786160718435,-16.591784814842153,-20.820427439107593,-20.62383624970932,-12.608763256817635,-24.962566444941604,-48.2771201702402,-46.2211868370434
0.09375610391301517,3.041073832580867,-16.574046659767617,-8.817994869384302,-8.43677812586714,-31.355755892637486,-23.8685321189432,-17.91404453892748,-7.718662909535997,-3.520639444218398,-20.087476328695995,-6.656363124930007,-7.320155966912358,-42.0142653225041,-30.903437927367168
0.09766260824272414,12.844974816008177,-9.035912273086272,12.30498177527374,-3.8523901005542074,-12.242542692347824,-5.693231430967877,-11.732366796054707,-0.34816932293363045,4.43043578712909,0.8442275438726075,-0.76949795389864,7.288142635203975,-31.001647041864643,-9.848731567672235
0.1015691125724331,12.322705701471966,-4.9394254490321305,23.164716334039426,10.99077214244154,2.057500736806416,5.8294192783544325,6.470918391374739,9.937889313161673,24.145983457707192,5.088867772660458,15.127479562696852,10.991498682959737,-10.408748358334668,2.3629182380307
0.10547561690214208,32.29899171408034,7.514288495757416,26.50546199499355,18.980381526667475,12.527926114864613,11.880764564323913,22.423284305076137,34.29011826449604,36.03763828845131,24.892875700166506,28.585079953020372,12.044693093526618,5.281638865900608,12.753602174545607
0.10938212123185104,40.64117201006387,17.567037840451658,41.261971039139794,30.79903585509293,40.598817160557964,27.866701727902196,28.663291658607072,34.15822382253007,37.29337213913387,45.17709832637598,34.82872172374036,41.48432398191728,10.976134418082832,27.938703316626924
0.11328862556156001,42.88956479747432,29.251525677942155,46.44070261141299,36.72935992164544,35.54174210214466,38.09029146501997,42.36537223786649,36.409546865944115,52.41865559012785,30.733154468291538,42.26857679762463,44.627616022918076,35.97403614285923,42.869163599247344
0.11719512989126897,43.17878004286085,44.436099723503055,43.297767708862345,43.45565754772095,53.415006304643086,42.56838043711082,50.708984516102944,29.477792979283528,36.35632362862003,44.881225900444015,48.264618305589984,33.91225021885349,32.87121286874794,47.957454266538754
0.12110163422097794,37.12685297141554,46.5856543877379,34.679611402360344,28.628306966760405,50.21387736448939,54.38163837215366,47.81314928349668,36.4209707171505,33.302346047834014,52.20166369482192,41.46138375174772,50.91524474742343,52.09387557208389,42.7502055942372
0.1250081385506869,29.12086062445087,47.01902512481369,28.284070506724497,30.877600617660697,42.00294420201769,32.76150038083288,39.539346923416794,27.633986917152846,23.402654281876636,43.10848255760423,23.42405264250708,34.241773283799354,38.60536633375668,39.84100388712307
0.12891464288039586,21.095132192595646,32.00740474768287,3.1614999922889826,17.833696807014206,33.30923091384722,23.67108812319588,14.769406666763386,12.49804812173181,1.3602195587135455,23.05192311202035,15.83023368197184,20.601701451584695,36.30775292116545,25.280591276099067
0.13282114721010482,1.3312046273694897,20.700166390392837,-10.669681003909977,-2.0324978543187067,18.836528392435046,11.272597194880102,-0.5643264282945673,-0.9310116248952673,-9.222685673146987,13.949362935190045,2.806918520937894,1.736568915925469,38.7781714506425,18.386083948402348
0.1367276515398138,-4.1930126218430495,8.584980188827668,-28.890986205478725,-22.240995619567133,3.361719132858091,-6.12949678569973,-6.945674261265062,-24.90047560408562,-14.99770307956152,-0.17247040590905716,-23.259256076855415,-9.57521297379002,9.685680544364603,0.9084558731164893
0.14063415586952277,-37.61047405880613,-0.12143715565318214,-40.66345667230943,-33.55956326637073,-10.067132142069326,-25.85381198337557,-25.057345881036834,-30.802819394279272,-39.059635487010425,-19.274421477639464,-34.17636212770376,-25.25144020046762,-0.3852346568583962,-5.572467208336313
0.14454066019923173,-50.16278764346062,-21.536211907308978,-57.74129508664494,-37.04023461934551,-18.85266683327095,-35.850872257940814,-28.65461698374308,-54.128402952672275,-38.23014608274931,-25.963495934727938,-53.2207118339814,-42.17281098926479,-5.837855357546448,-16.510470515550896
0.1484471645289407,-60.33772489701835,-35.72678709882887,-67.75733586478162,-52.37512948287166,-25.686616168359535,-40.8669737238348,-46.67538673211428,-51.28505251909521,-47.06892857664685,-45.41778409295023,-59.603938144737064,-43.13041728699993,-24.070094342013995,-26.32383284590694
0.15235366885864968,-79.65415310846335,-42.05659479877699,-67.45603563326064,-43.20602369554112,-35.44254132751851,-44.75370546013487,-52.29714158524629,-51.470047831512254,-55.012562814522425,-56.22742570100131,-60.442054635365416,-42.35225307274021,-19.72781311675367,-31.737773348412706
0.15626017318835864,-72.23139993698227,-36.94195272693308,-58.094796275517396,-50.398952487279125,-43.06075034553989,-37.4856443752072,-52.197524808635656,-48.19352480694641,-45.091722040789904,-52.59047684083487,-51.29334468017242,-35.35654234156274,-27.463859165413517,-31.596991544581957
0.1601666775180676,-66.86092047712899,-50.48306075876081,-59.19277368156166,-53.75538215446359,-28.230386713401472,-46.67759066381216,-44.426214573650654,-39.07747465404758,-51.82206463655358,-45.21196041849372,-50.984437032247726,-42.336462536428336,-24.408183017374046,-23.36570921721884
0.16407318184777656,-51.54388041636441,-51.61969934375821,-48.930119122969174,-29.41892418045768,-27.946773523218663,-44.042584073783004,-31.929118277893675,-36.963975224816465,-32.58843227048583,-38.87327372680035,-49.67866405596587,-37.61306914182904,-35.00793048285636,-23.374803182023147
0.16797968617748552,-41.90812800219338,-30.723883060087907,-34.56075927059876,-16.417480943884748,-24.60201273447809,-29.70493845905331,-22.007112155760474,-26.559295092645794,-19.70833915101655,-27.1952942624889,-30.846918044642184,-33.563072867446586,-25.04542875176386,-26.906645758813866
0.1718861905071945,-31.749820166542314,-26.02808645649746,-10.058152002004709,-13.485947950534717,-18.959157290006022,-19.047206164222565,-18.583182981682867,0.14274180424509986,-11.173133396796729,-23.782075632248812,-14.94396248458263,-25.855896092691886,-28.44595787884117,-11.744486385169246
0.17579269483690346,-12.557174498854513,-4.696285161034094,-6.832864961915778,-3.6108272387232128,-7.680026421651414,-10.771343061573154,-19.02962718215321,7.905914967376841,-0.1481267885291122,-14.446566302782488,-13.457093712976468,-17.17901081138747,-32.723846654835825,-12.002809760021979
0.17969919916661242,8.84529515770972,-5.294622208883846,4.8699493846508775,12.080514109406034,-9.080810395891671,-6.568482766089815,-4.008862876436778,13.917221178509815,-0.6768930457930473,-5.26762375097516,-0.5883511359903699,-9.116612413131538,-16.420889730146296,-5.757652634396571
0.18360570349632138,12.893482791060363,1.5288056446764768,10.120523846401655,2.422344597181402,-8.49191695284668,8.337394108271017,10.896936606951718,25.274104042723607,12.949683441240492,6.53255199015673,7.9756122180030005,-12.421005167667492,-29.34108923446321,-10.857610762286566
0.18751220782603034,29.802976515052258,11.008696299406322,15.623675407602157,12.947103216453383,-0.6025606710743627,17.65641843200362,24.25726518960675,29.20965883766281,28.20453736089944,7.547502963720995,16.83528625688821,0.6584754382633331,-15.930881722537462,7.309502044679769
0.19141871215573933,36.03936013105531,22.660983995500974,21.025642550392295,24.35665014788094,3.4529739593621676,22.998665717439383,21.861850963480563,35.39459349464697,34.228044497133965,9.933632293547578,32.7910407464249,3.529328861793104,-14.58752827071481,0.03741315033151427
0.1953252164854483,49.17948430633533,26.28499629725491,33.824515001283245,28.8946646744529,13.12702292747598,22.405808446719774,28.218886972410804,46.940209161544175,41.04594280763329,22.417127830625816,30.048374343953963,10.933494841183204,-2.1236560045999067,12.911382634993586
0.19923172081515725,41.23858404247465,25.75433205851771,42.8442749276786,35.393829976558735,28.18053581875298,35.29666250280936,37.29764720732427,53.45773109382517,39.99589334906231,33.04280637565608,37.2061600173836,25.563204678518588,6.932454623326327,16.683436255129692
0.2031382251448662,41.927993017970465,36.85154922482869,54.82910896977243,50.28319182257394,26.147438963338416,49.190456041604506,41.070361904699915,35.117936691385715,39.76382696795812,32.223331805808925,57.09202486294923,39.8726263188332,12.126706588674335,30.262784657323042
0.2070447294745752,52.41307816971938,37.00830014552664,60.15972129675386,43.022047221927146,42.108091864633614,51.91757212982999,49.2869882571282,51.81089921021582,62.94393256586953,52.61586593510723,53.255016990416784,60.81739622996776,25.407223313587654,36.279044160986416
0.21095123380428416,51.91001643696632,49.0307839828672,63.468863353459994,65.42570234761347,46.65120514348738,53.28262682335867,45.1099346557845,49.25388387827676,61.17034345425147,60.75569136353119,70.88001811837732,68.56311601572246,46.83626350393425,55.09242939245179
0.21485773813399311,60.65025849229251,55.59685102264842,62.64861104354123,67.19484251668791,47.073799328114895,55.074140318531555,70.26637876320788,53.339925369194475,58.38851393745183,58.6065536360485,70.71713426264296,67.63787398873845,52.897918500765925,58.59775586258143
0.21876424246370207,56.01663884833085,48.19910161919323,69.03927745764247,63.09424868075668,66.15289098790437,67.77616218847523,67.78202981526297,57.00723544691534,60.34132766582744,62.75636192206973,69.5317125533144,83.94502182317615,66.71315618689415,61.85397290350575
0.22267074679341103,56.997939485974584,55.630417576809755,67.12984932457715,63.399329833260126,72.20433578758372,57.376492210439146,56.56208714244215,56.74023177135248,52.38100140668377,65.14824611031847,64.4148879540239,77.05892911666722,75.61490393134801,56.7350568988591
0.22657725112312002,60.079975004102394,48.66162018986554,52.059895278911206,58.358414706222085,49.912735833498786,50.94120784775901,55.291325134365245,38.283668290013345,43.68401898927304,55.253121364066146,55.133431675283276,56.07967822767233,84.69568714102009,60.791789671756774
0.23048375545282898,31.043728050620437,49.175840364794645,38.314153065719005,46.41763822424088,50.546908932752956,53.71631174577991,42.96118479714325,28.253575361757765,32.6431596979669,53.87704355327617,47.179421299408695,60.53135715187387,72.22619668250161,56.738907620683726
0.23439025978253794,32.27859516800633,50.33875412804939,34.52738947074079,32.4594687379992,34.04084248957809,27.450660390344662,23.826742818554397,9.86222135307036,15.658660487327271,43.91500554057838,28.708032383278855,43.269253255918365,54.983931717902706,34.989822037916134
0.2382967641122469,18.744959163632867,25.352299892425762,6.102442825824786,0.39457101081875123,9.766032770448856,10.5300836355596,12.639500730842153,5.60465735599746,-7.888915378730208,9.932312789277065,-0.3594669530653305,24.795556328371774,36.34282817459108,18.81975536572967
0.2422032684419559,-11.455685594838501,1.594624257795349,-16.22779316936475,-5.2979103340232365,-5.279040977109683,-9.068094419752669,-11.112561690298465,-15.274716724396562,-31.20061950468356,8.2651695996353,-6.8280650130898515,5.3226849090016,21.473105467383064,-22.654339668715508
0.24610977277166485,-25.421619097542333,-13.14918870907064,-36.27493229771115,-37.50502028737107,-27.183068570460872,-27.427314636603697,-31.025765753065468,-47.809147080449435,-44.00359900899722,-34.346534345199416,-24.934885201200792,-10.597687706691318,5.081182627051074,-20.871911810567248
0.2500162771013738,-52.1032410329873,-21.95111832788152,-52.188141158638565,-48.77966753030303,-54.62071254129324,-49.17531460426526,-55.32439894153559,-54.57878106120357,-64.76931011977472,-53.164083321716134,-43.87824949637548,-31.507761618176193,-20.619674958148767,-47.63977784085011
0.25392278143108277,-57.502194324863424,-59.574863681135,-65.76310759682414,-70.57375290326064,-68.50439457372346,-63.29197247857914,-64.38597176171427,-78.81819243058428,-75.70177642255378,-59.52015090319492,-65.0993326246775,-50.77281577572904,-27.030923748595693,-61.88205796907391
0.2578292857607917,-72.06050348133643,-67.95228416672657,-75.74481579589958,-76.42668165700891,-71.68651161203312,-69.23649867696311,-72.92487825386823,-83.65939143167694,-85.64378493303396,-70.74302020254902,-76.13988932103354,-66.1048808877658,-47.47305640193463,-72.09916287486493
0.2617357900905007,-79.24129741443943,-70.71832480124324,-69.36079178693012,-66.1474110922984,-80.88431492498545,-80.95062078028661,-83.74540479683112,-82.89310363008653,-74.75125622687314,-76.32371450166204,-69.23515835584695,-71.8960428786325,-50.52067282376852,-73.97443936238427
0.26564229442020965,-77.6349310698382,-81.22723950110583,-63.01541931097271,-70.86233901123434,-71.49433205097895,-88.19544796934494,-78.66504477400198,-74.68107881329381,-80.2079000951581,-75.42130292791992,-77.10312524972726,-65.62450205214871,-68.54976501277396,-73.69933908049286
0.26954879874991866,-72.66579690168005,-80.38469612758497,-72.29789803987039,-68.28263859975435,-59.21558175012225,-70.08377257341746,-78.0292885739484,-62.25558620319082,-66.47083793429981,-72.02039006353405,-68.13016415807024,-59.10375096331957,-64.73629346849867,-71.48820202320192
0.2734553030796276,-53.331185762461786,-67.84950543809892,-43.68620495424751,-50.84626304442505,-66.60561610674269,-58.83549975246321,-56.75162400604896,-59.40667301640928,-45.22944440719259,-63.36441745235388,-51.54032665020535,-49.91222805980205,-64.33357947999647,-63.76822923369899
0.2773618074093366,-48.79000047546681,-64.99867860389922,-41.305509414279925,-33.185205740951105,-51.478767223628395,-45.90909267830288,-47.90529540572507,-36.87218809927293,-32.35293350639501,-53.04194796452287,-44.14383496160832,-40.96874918009262,-56.99715496422782,-40.38827104091534
0.28126831173904554,-32.316658655532656,-51.85699377042806,-12.831046163951175,-27.994122385978685,-34.38225908225197,-39.81217702059815,-25.099087820175072,-16.055705193046943,-27.867030422853496,-36.2801268999629,-31.147468147816074,-35.9673669883338,-60.69798981441406,-44.31253642686472
0.2851748160687545,2.560021668560019,-28.863991196557006,-1.7709697439086778,-13.031188550840874,-32.32034457730191,-17.296851997159234,-18.95736375456336,2.2336695431615228,-2.883462610442586,-24.98309212461354,-10.738107078738775,-27.758463004397463,-42.87100125121521,-27.830379004822476
0.28908132039846346,7.788358874478367,-12.954930644119749,9.453330804132893,-12.033515650644194,-18.9547293219384,-9.193918287353062,-4.615276483266899,6.532646183291028,8.161289977632329,3.756329531320837,5.243859865439504,-11.214861873922231,-42.366596020673235,-19.19264196932505
0.2929878247281724,20.518752647918955,-1.2520752710021539,3.017485266509328,12.559596114231246,-4.6597530980003325,2.325443957768072,9.279955130911613,16.721293546657865,19.156492717117352,-1.4557325215305674,0.7317697660898501,-11.055185438986374,-37.19174466696207,-12.556602319635925
0.2968943290578814,25.9948560586772,13.720480263017869,23.941472682570918,8.741095687146661,-3.321827922250369,8.57842404972091,19.45901330534963,24.153657991142662,19.004780960585308,8.958649443126946,19.3645789968378,3.4946249190249237,-26.72708548970298,-0.20850322633938237
0.30080083338759034,28.172296625863794,15.824879173436017,15.170405253752428,16.87450575151662,16.49530924995205,21.603600520202278,19.368447068881206,37.006365008153274,32.35585464803667,6.0002470972047846,17.693841138030706,2.131957369848689,-17.35629240446138,16.23619167725847
0.30470733771729935,30.171829541131356,28.81813794253271,24.376282198103222,20.23197023807823,22.643798475195425,33.789047439145975,26.7468406495827,32.85317055658924,18.41226603011642,23.854060455494555,22.547652927165895,0.7045878019782572,-13.569018069303928,14.811687463815984
0.3086138420470083,28.900068761113467,32.2823370003828,23.524951843385516,26.571789278729106,24.127112069139507,25.047457483664267,44.43166079892614,24.448054499239156,32.01976217174968,18.482863051048085,24.770741487408493,15.991937532212429,-1.5070891009209837,37.74427098219585
0.3125203463767173,23.771669061620788,31.624060083769464,32.497189715188604,29.597752763595118,34.82802525718209,20.242918318625126,34.55958357700448,31.179559443088532,30.95374876637337,31.356888245943413,22.821867908575392,24.093673263550944,18.59270030804795,31.14262764083448
0.31642685070642623,16.4422131828387,30.181023037366213,20.12847460139588,33.05717679528256,36.404395251480636,36.20853307180483,43.499547427011464,31.429860233964007,37.69320997255556,19.982498944653997,25.263569785585624,22.409445568300832,24.633225978677906,45.098591392023785
0.3203333550361352,20.842050454389028,41.09196327141756,52.10580015724932,32.262814221819035,49.522558227917045,38.039041959285214,34.261258750259564,32.47432821596118,36.01336685532557,31.9946163111144,32.92163890679463,30.965072772572373,41.324850540145924,53.57747353248881
0.32423985936584415,9.927511274791732,37.672264742330064,27.120467878683634,30.296667215758337,50.54560386304502,46.31679094315365,39.57212467049334,31.6041689049041,42.77948728823569,42.06145149007742,36.249196009372945,31.855772415113613,40.91941110578637,61.53347361411707
0.3281463636955531,14.904998736275672,43.5396267057057,19.32762991951484,32.49654980267138,61.63291111472392,41.83638030430023,42.109664571973276,32.325002414539924,28.673489535703187,38.4639884170035,33.24119646949975,37.58675163683333,56.09779714780253,61.986779895224025
0.33205286802526207,11.975784364354979,42.748691081376705,25.124175028661767,30.99134444089401,48.1684807411906,36.452873462977585,33.16622515394535,33.98858600393423,41.25281833820445,36.00545339393358,73.61865499242339,43.77542812192424,57.35191187874495,54.92964149742497
0.33595937235497103,-2.0711959032971876,43.3192917577896,15.62167452486065,35.287225896875526,52.13691256719545,38.175274826297134,39.13079743417616,23.975097996258096,27.875109185095308,32.222250262958845,27.06859908254697,39.13411104464154,54.42475184152031,56.69183629200745
0.33986587668468005,8.454934586467717,37.50938851595752,3.8302302829719235,21.12262426812774,46.4249065282592,32.28671063050755,23.83460375919163,21.58668819533591,22.440847045161085,31.661075803328934,27.399819214115574,22.892962677927287,57.861057569550226,47.28194243741419
0.343772381014389,-9.59391506231377,30.75862631991106,4.2065366628348375,10.162342998895387,39.38093817891598,19.256186380102566,17.226407194596085,8.789215165666327,6.825619285963944,23.871411206977232,10.47937406302093,20.89535183697975,39.691450031422065,34.502644268554086
0.34767888534409797,-7.038548698131899,13.89121529602682,-12.654267656841611,-4.961730426896735,21.415008643463338,10.479218334266118,-0.6926200074263895,-2.1098533365773675,-1.6484906358908935,8.599623406090357,0.8659558592638321,7.067447509310647,35.971531124279814,14.204044132415213
0.3515853896738069,-15.617020746790821,-0.9608025977936325,-22.69348816770189,-12.226486485615293,-0.43626783677997905,6.790368331982331,-6.153605794096018,-16.989273798220573,-16.420130429014822,-6.300000984405981,-19.803676530102955,-13.591902734129778,15.40784586571727,-4.2810764607970295
0.3554918940035159,-23.504247216967844,-4.209481963988504,-36.77265651235323,-25.40869264713402,-20.53070626521425,-17.657215703999103,-22.979734587185263,-17.939159486971022,-29.038494779190977,-16.358782777849036,-29.53719041360346,-22.63784534397631,-0.09178989641020685,-13.18360897445472
0.35939839833322484,-34.45181651761993,-13.34943898572547,-39.34827000023539,-36.06953721350356,-25.217568473789527,-35.45914977995069,-40.70664588571017,-33.39757126979027,-28.403605793497377,-34.10635816848082,-38.00775182681692,-38.65044656336409,-13.283234025168111,-35.395857678551515
0.3633049026629338,-41.786648028005395,-33.271547750134225,-46.148035950470025,-40.10009627222749,-39.49861819732081,-41.271784663779115,-39.8195759275857,-50.099384494294554,-43.92866515928745,-27.50643487487728,-38.762192722284894,-42.31533053724207,-29.069459832198728,-42.1454432967105
0.36721140699264276,-32.87389045580849,-36.65141606513024,-38.91592508324039,-41.34897605687601,-46.0638650180681,-46.47589675799759,-51.5630604767128,-47.699836864338856,-42.87952160216389,-41.60082455505242,-44.41730662367519,-36.73553481382763,-38.01791945787676,-45.468509084146724
0.3711179113223517,-30.003953909022552,-44.67081268490328,-31.061417340934184,-42.49319551315262,-50.60380283805734,-44.924589841559104,-48.54037178219295,-39.28870037102656,-50.10131997141328,-40.587083541143805,-38.031667015294296,-42.94569874703022,-45.107396399628456,-48.34995553580403
0.3750244156520607,-30.477742344779667,-36.38768475048068,-26.449673451233572,-24.098502618526155,-45.63921165498149,-41.91905915188196,-32.391985519927196,-24.17043534889182,-30.07074877003776,-30.599748335366826,-25.828896226958488,-36.10010886190671,-42.07545256270686,-44.15535225574491
0.3789309199817697,-9.02311767874427,-37.50056806395377,-3.4191923286340478,-9.508025965942181,-41.85826087109779,-23.249465172430632,-23.85773811768159,-6.540592158705894,-4.885710798856778,-32.52596604773586,-18.572220606997718,-17.043105178768947,-32.80233637989881,-32.57061204132716
0.38283742431147866,1.152559543835738,-28.724926246315505,15.611899129868046,-1.8824626012109371,-62.424580554294806,-17.906096986457342,-7.882050063538207,0.5418531293126905,3.5982895487208175,-21.440761244828128,-4.592804556461772,0.3820123799849089,-29.551759770201148,-11.128547702646484
0.3867439286411876,20.710690445402108,-4.109743092291955,26.471660884218387,17.775938249243826,-3.8977357670527253,7.626436106187611,5.45984193052557,18.727268799174805,17.08597959666736,2.689551574086308,11.939090749319208,18.136473492678224,-16.034492586561345,2.265822915077889
0.3906504329708966,38.83291199529503,2.336343218592994,43.00704102004934,25.313021331161753,12.065028046333818,23.43003163587673,21.249913918958274,41.69798389880818,32.93346906506743,18.233561523637622,30.55700390135109,29.486789776950015,2.8493399513073925,17.395643455652802
0.39455693730060554,46.317564442401604,22.70710787972467,54.250230610253254,40.0593697507565,19.806369711492874,28.57982498368766,39.12827872291959,41.011446915780525,43.27957456860991,35.573047042487126,39.521013252152414,31.28904406653989,5.398786001112164,20.22944807303978
0.3984634416303145,77.46515876748558,28.571001673367043,65.0938444203064,45.37363422410387,14.561169877456337,38.92195152885518,53.55830239124933,56.885619622811944,61.578668267201365,44.85061484337531,56.69225651522265,43.71571741328897,20.496110358913832,17.100410533028132
0.40236994596002346,66.74273627707724,41.5664472997099,62.49065921453837,42.016899329906956,35.812459895587104,48.625937143347755,42.3504804567771,42.30840564639163,55.91676797837887,44.719863478911925,60.08138082108728,53.4150581885894,-1.0522860870970625,29.74688406408454
0.4062764502897324,70.03304506707043,49.63665318619262,50.01591260057487,45.89328424086122,34.62734504555904,49.42450312536321,53.46838416873006,50.80989874889802,48.60872738950894,56.79664703980569,57.9180443041207,57.02377881968238,26.97447691116294,20.99125066118517
0.4101829546194414,55.5574596850794,49.75749758849932,52.47000732305581,46.956745745009954,25.283993824386652,33.086496143809384,43.66462128689586,44.21544415704903,33.82637915153325,53.43262328635232,45.3263125281545,53.936462739947146,28.520355648372362,33.29182258453911
0.4140894589491504,51.68696221104125,42.23236947941079,41.44806083168925,34.254163146929955,24.44937395729835,30.147710390048744,41.10059494196993,28.68502495833888,27.077536894012653,46.31800067408052,33.250432749952296,35.77984919324383,34.984241650279564,29.402580312429503
0.41799596327885935,34.305794358248,51.72162096775935,29.53959956803048,26.24328462983726,25.424208394416027,32.54398367605817,28.697408211108375,15.834996325475956,24.095380830017397,29.174128105808006,32.81370132948339,39.95233248946833,17.320072201016274,20.654212120596174
0.4219024676085683,26.376296882718265,21.196630735645698,25.482438200619793,7.305852974720395,23.769445480061954,14.610116240388438,14.597440731107422,0.7537252067075642,5.274174451931866,22.386355467378156,14.45396288489584,29.36989688140357,33.51188681487727,19.58461920549246
0.42580897193827727,13.08173638164193,19.67034460488643,10.41143229421605,5.324813411706875,11.904659402675852,13.165165734845985,3.8255221817030245,-7.66925378162743,-4.274110706124642,11.259861821887347,7.906952905702637,16.350000928537092,27.060925704047847,13.305818411976423
0.42971547626798623,-12.912652328053976,6.828389569681015,-8.279827787352243,-0.11984671997324314,9.014959462455478,1.3846805307365506,-0.6998921307330073,-21.39518591503366,-6.348638569045488,-1.0209954137120891,-8.48673742075278,24.068396465031967,21.450703282468556,11.47570966332779
0.4336219805976952,-14.457242664266449,-4.804459908276235,-14.970601909114434,-13.28960200332391,5.568806608436936,-12.966135055997983,-8.916113383093183,-20.527968422171845,-13.382269287121202,-3.7884783240047404,-14.643188741039113,-5.722778233167769,19.11406178635527,-2.1873989807139926
0.43752848492740415,-32.517216455975415,-19.448273794489765,-20.874924498472623,-17.17829920214749,3.570741381015544,-12.083838938857696,-9.967299715536644,-30.033378328720755,-10.56282532590835,-11.842712072397118,-21.9345432679268,5.223883613862174,18.016606599977397,8.887338255435681
0.4414349892571131,-41.311105978738325,-20.343120755750686,-28.927039920673735,-21.87810924488476,-3.2491159968246364,-25.699289433994107,-34.73536030112835,-43.91995315088707,-35.34621997466558,-26.13942616594819,-26.842818033271083,-7.003935745590888,16.713611223542678,1.1490207103975552
0.44534149358682207,-38.42993357497119,-25.795125767726272,-29.213115358866737,-30.146146780395654,-18.52059734873825,-27.25729211188015,-34.35733599810045,-37.39748641579461,-32.600762916080946,-22.48764934081293,-27.204262965221616,-16.16790105159677,10.741499353619975,-5.493631469625023
0.4492479979165311,-36.91079003835202,-30.434792375765678,-41.566844918227254,-23.741920262432522,-25.626425898229396,-31.500586334200857,-41.207995937835776,-44.19767099587023,-37.28422052650582,-33.75176677978008,-37.31982055714158,-26.36028740473328,-7.3424852708353185,-18.21582566615325
0.45315450224624004,-57.857580040146345,-34.2654761023104,-53.274696594053125,-35.68917605775374,-23.70531578189518,-34.16566597475372,-48.40709810457663,-47.801259491981504,-48.899553450561484,-11.16785987567139,-43.11865666686297,-39.7359491827158,-18.866761321287356,-31.302328865115356
0.457061006575949,-45.90581269173939,-42.35977625238793,-60.18807804662192,-46.18096866719591,-30.789985718660933,-50.74995097737822,-47.295280076281784,-43.77865889911374,-60.5525504744232,-53.06192844067216,-52.41451190397153,-47.557538668161534,-35.555772060799356,-46.6605868413791
0.46096751090565796,-64.50223605473604,-49.08903376500343,-57.23127132661983,-63.69780324971259,-52.503693963195424,-59.422500319526804,-55.07258705546971,-54.45713660614112,-57.44082834124447,-57.50451555675744,-57.81011849919586,-63.64050916883353,-49.1622606396172,-49.81421765814854
0.4648740152353669,-54.29522278333336,-56.66648738312723,-66.1615530471213,-58.123024960745724,-60.99459219383656,-58.73221120658622,-58.53262719402912,-58.654359891000595,-64.19982090820743,-54.392843982270115,-70.47813241019412,-69.71328214225609,-63.60012718461684,-68.7128024539663
0.4687805195650759,-61.79209568180669,-54.10929533456382,-63.40412785730827,-72.2690393753407,-61.08578091386335,-60.65933764789287,-64.12057756668793,-56.124115564907804,-54.89022867518502,-64.41662858272667,-72.86208813431702,-77.87381227835087,-68.55058803634167,-71.2470628541097
0.47268702389478484,-58.29280379511951,-56.638381891289576,-63.999442521463095,-62.35373563798235,-59.10069205164271,-51.97001360639395,-58.730634079546704,-46.236990956207734,-62.90408685328709,-74.9337821230782,-55.88158441205782,-77.40505371662766,-82.8995586461133,-65.58586490985455
0.4765935282244938,-51.419299373315056,-46.27425907757876,-52.92030399652463,-52.394623663527156,-52.978651203209886,-46.188894239055166,-66.38580536220091,-44.390580932146804,-50.14120531119818,-61.47937762739928,-65.25340415870782,-70.06242566956848,-80.22801172656382,-63.66189027987967
0.48050003255420276,-41.86824447291121,-43.95045429800692,-39.45512349097522,-49.92655485147298,-48.19462911888013,-38.1799901686073,-53.90587796769959,-31.96084578300358,-33.33462043368679,-43.99410376206899,-47.51288222046,-55.44744012348327,-69.56603890228101,-49.01691230561192
0.4844065368839118,-35.531183868807325,-46.21874671001079,-22.176848964463115,-28.933274674837683,-32.62086678523946,-29.26943773054139,-28.615621795439647,-7.99102301250362,-15.5629141537572,-37.2068031542773,-35.70169123082632,-44.35952436866582,-56.286429565607335,-30.855992295760394
0.48831304121362074,61.30389154871732,-29.560889704103097,-13.677905270065512,-11.68426295752774,-13.222969760062599,-7.77455880296587,-5.678903211673152,4.474998272955655,13.512826058479323,-21.178847200552255,-6.09382707885922,-29.3693437542688,-47.72621255626604,-13.800197832039695
0.4922195455433297,2.2480920627564616,-1.6856461997518917,7.1823191904341215,14.311108838047659,4.9584821237321055,2.383807107492146,16.05779534822724,25.254900391315903,21.87751900680137,-2.8258146525818875,6.230531942192235,-2.1971501869849943,-23.201113951604892,6.974861131060646
0.49612604987303865,21.10019913769379,14.182125304538946,41.95386562507859,43.69968360457904,38.753519524891885,22.495740034193375,33.526655430357096,48.558160303992636,49.05636922137787,14.604419256035108,30.01601030450421,17.95387633358244,-5.664277585062383,30.238361796313313
0.5000325542027476,42.650339845443895,43.61153289955763,56.8344274754149,49.789113973093656,41.83375140855212,52.06304108759833,54.839620075961705,56.505140578136285,75.6467301800671,36.637341861471995,48.790693670931695,33.45927200813703,18.787597804090147,44.97407926381185
0.5039390585324566,54.90222294980294,44.51634684712616,68.5805857029706,66.56062919661213,70.72953739845518,64.56045034668273,64.98068130508493,76.3519995775528,74.13548179009238,64.99716178907052,68.36244595537748,53.63666597771643,36.75472328546365,65.66938337710357
0.5078455628621655,61.39531914264855,69.0801990452568,79.58485935780628,71.28497959354053,69.20406042503271,76.42168976733691,72.56823762642969,77.59246295190427,81.04123508515012,76.98846861952337,79.18709934398609,70.93413847826692,58.10605930574326,74.8121836488584
0.5117520671918745,75.05857516864484,75.99194291728855,70.49037897501195,93.7497989214088,70.70255428583454,75.75824511946406,77.3547869372331,80.84380308895233,76.23891333712047,78.06404536154453,79.93856008615293,69.8602461711468,63.25772139920111,72.42926441821872
0.5156585715215835,70.1570505213841,86.2886368448963,73.97230918544466,71.0026577381069,81.96924893558649,87.79668899583123,82.60673672455049,73.11764466300261,68.76231405307772,79.97432519879838,74.8959024545374,68.25850831534994,67.79341528176205,66.83640231641463
0.5195650758512924,66.3210080788286,84.56847439450306,59.46148619669343,74.66900173110527,72.37806438629941,83.01451103278723,62.10193833103634,64.18828134136633,66.18917506782412,70.46202483626281,61.063515454054496,67.54118864642568,65.6974696532572,59.475565017754334
0.5234715801810014,51.65095427158999,76.96200822488721,49.901968012977264,59.42052999463222,56.125512102621485,58.443447073678286,61.706603657558325,49.8351435354937,51.644466366382034,59.10418198313706,59.30886518560187,57.42165940345548,60.358767674692295,61.52771135664853
0.5273780845107103,40.82939351565904,58.001056091275544,35.596315360062405,49.44036272881146,56.31465376449773,52.35133916739358,52.67856041766598,35.19294562926292,35.51792200597233,54.65168331127025,42.485818722877696,43.31562114626837,56.42211647231794,48.84877502044078
0.5312845888404193,28.186999071193053,51.51649104360378,20.065982202461043,22.135327903223182,38.98174278853367,42.45236113798495,28.02946431510685,22.388573504335525,13.39538700375417,44.68911498664055,35.821304790521054,51.12593613706186,42.97004175840942,45.58542802374145
0.5351910931701283,11.482204907991898,30.920382452582757,6.811712201481552,18.09524205683443,26.094179979061952,17.80137800776609,16.203734395574497,7.913476512678172,15.383428234072044,21.99781916867128,16.20666208976683,35.09321667694463,37.42264054694186,23.396102301100907
0.5390975974998373,-1.3945854969604543,18.7830239562178,-2.9037661527617797,7.705028508979886,22.202324543917896,3.4200868306595913,-0.015563755642728161,-4.4293186506234035,-10.752627568857772,8.204975430237823,-2.094960652160819,15.611361213557972,30.868365313368123,22.27921248730992
0.5430041018295463,-16.97542357124027,3.9495092728664765,-11.542719296018614,-3.6261022293457197,1.7898964615518125,-1.8180939332616552,2.576910084106345,-16.531194727936388,-14.966111561388661,-0.7357337271848098,-13.686513742181637,0.07719577125751442,35.698406158702646,6.343960846855298
0.5469106061592552,-20.031144214506647,-5.950485908424482,-12.716783252826561,-8.001464701224842,-7.624082322532431,-14.472298580181885,-14.100562344632516,-33.380311136951825,-12.930910780302074,-10.49815541377509,-15.682015396177476,8.09990665706777,19.430430186733552,-3.9835992480716373
0.5508171104889642,-34.23769432315714,-18.28087047398919,-20.38094057688287,-13.691690423416809,-3.598715832019101,-14.606153648810535,-23.89006751473876,-26.78803361287064,-29.64753907724756,-5.501213070217066,-22.970560245750434,0.09810556462959852,20.48195067862593,-4.4200946777697645
0.5547236148186732,-31.30338441728402,-28.162659194068162,-22.187557734061258,-17.37227216733112,-13.864727334492404,-25.6274976829561,-23.97972999273432,-37.204275171705284,-29.197625022668866,-16.78707346625221,-32.785794375252635,-8.648217448224377,11.526384730580398,-11.659912893601867
0.5586301191483821,-30.494489640548903,-29.550530777978047,-15.860938764448349,-30.437841845378568,-35.928454051426584,-23.170663568838357,-27.80163595320599,-26.89847516323296,-33.05081365933391,-25.472641395465054,-29.280424216252445,-16.2398068660081,3.894162229604385,-16.96086205403281
0.5625366234780911,-31.509941505776077,-29.18006230396754,-15.967016900150785,-27.33462910642226,-31.51149563706489,-18.839240687830703,-31.882682402454414,-33.65025360024198,-45.854868190128656,-26.18346783534204,-25.502947544056504,-10.909093744456039,-13.805356230124039,-32.21449059317604
0.5664431278078,-23.093397295937002,-32.96312137669379,-31.911212286667123,-30.638763248681432,-41.49357745393757,-32.22116266043778,-33.75195242245009,-30.92240551477367,-38.199775035056874,-33.579467288968395,-27.431309164924475,-19.231946875640656,-15.338407186705112,-39.15192164552839
0.570349632137509,-20.089488412481195,-30.601809845703137,-25.26105294577819,-41.28404041108175,-49.14317582416798,-45.93016130484314,-38.370806232728604,-27.76173347169026,-34.95535978967141,-31.334384516367574,-28.269943399930114,-32.79505059313424,-36.83131720314314,-54.695949941012735
0.574256136467218,-14.602780737423906,-45.065580817898706,-31.557376890273,-34.34916079973658,-44.28595947807612,-37.956450558203954,-31.392020663392174,-36.76732356691698,-35.85650221822995,-31.44332119050211,-33.372497949938065,-37.02647437512039,-49.55383117782336,-57.96065642043114
0.5781626407969269,-9.748442803349699,-42.855098654260324,-28.675019425616533,-35.72925255166294,-54.63092548352928,-37.18129537862248,-42.22714737427036,-29.31677756769244,-36.808790885896215,-36.307769825240044,-32.83892318958077,-87.49569881276128,-52.72906774289441,-58.71072812401758
0.5820691451266359,-10.853579299984661,-37.661108505534756,-26.601421242618798,-34.05606643221177,-56.92615773289441,-46.902947157488754,-40.734258243006394,-27.630510777161263,-39.793263161185166,-31.374451599706713,-27.521471850990356,-42.459384615408,-55.291044255318056,-62.27219385880783
0.5859756494563448,-7.604094316440585,-44.60952379427366,-20.9007495892128,-31.27230121277703,-49.505706631228314,-41.756000652072665,-39.42812441837887,-24.14396381742987,-34.748629966879264,-36.73516025829241,-27.69587543402171,-37.733592184235505,-53.70071671303675,-53.01938101515636
0.5898821537860538,-1.5187144476345615,-40.393539127171074,-20.633699818983462,-23.678910043837217,-43.18658739726147,-31.403488292646053,-29.51943459320192,-13.36904697799608,-16.36294742059246,-34.29198030915819,-23.46327648149311,-24.205597988635322,-48.78861601457183,-43.637935325303765
0.5937886581157628,2.4384112945981826,-25.581101283665955,5.069838736145462,-14.859064774595506,-24.997098628683613,-23.37635207877263,-6.435117369664567,3.8971189325795432,-8.317794721921711,-10.637416010565321,-14.360023349040048,-14.948094280885114,-46.16096034759485,-22.477971815762146
0.5976951624454717,7.172241859326866,-12.475218646341123,14.64393033997491,3.599801355898496,-20.601681708190686,-19.5523816736729,-4.422053928043315,1.5212915525057262,14.624456809519572,-4.639693682725153,-2.8597666325705315,-2.634178781124346,-33.857893429495455,-9.863620531526927
0.6016016667751807,14.889861495341021,-4.099045584205769,20.900092769334552,3.984858761038108,-0.1017705138664311,1.1775737525862198,14.191750257481996,23.77785268298633,13.651057354418803,10.705350075329337,11.897330784383684,8.636269217859182,-15.19903945863708,1.5078756452376931
0.6055081711048896,28.19534836456988,10.355317568789717,38.67528313802193,31.028042609848722,20.409034373549648,12.774901996474945,28.618328721365323,23.574781599818255,27.20908650406149,22.52690491882195,29.804511669444118,28.45170756357024,3.609609737363529,22.294499882323258
0.6094146754345987,31.957903921442007,24.741773067785097,42.59427176841851,29.484102056288645,31.89756678601204,33.74294262721105,28.201276841106008,38.516822961357704,34.044577269344245,32.34629646192509,26.591562156911976,40.54238010655478,16.032100366693424,32.14300027134164
0.6133211797643077,31.698189704850982,28.643822258896165,41.946351748211804,41.90497790264622,39.59926404156091,36.61639634487205,39.768102926149645,40.76153358793635,48.2785572893361,46.449991309038396,40.051291928835134,46.98891606835691,30.793858251062453,38.57146625812594
0.6172276840940166,31.66963826839322,33.222288434051436,44.53564006030598,41.125614985222185,42.049238838754746,37.91558059529688,45.521643762996284,44.27865773561872,40.749609013783584,40.58092903984907,43.28230668514761,36.63132385157535,36.80740448094986,53.154327807364425
0.6211341884237256,42.999800886773485,39.68129404452872,31.93525555375023,38.098483442061095,37.869425200002595,45.22871211505773,42.934922712946424,41.06473315145914,38.20085941463962,40.65711555169914,31.305700314597573,49.997609521263854,43.235174409600305,44.8169933795102
0.6250406927534345,32.53135065143661,40.17923685211911,14.894545858357624,31.68881638616512,46.138660911175506,34.38604522547128,27.60718776572283,22.359932094875724,22.545144569874044,39.63762317752544,24.692770810713697,28.8807900206645,41.024025145700584,45.28701124502049
0.6289471970831435,10.390719120288752,41.8877808145872,10.828978249015057,9.685234776670601,27.143786543090293,21.42822538412907,11.88525531475532,11.358108162942827,6.897909947708393,23.582463682601862,23.13466754267057,15.673767895313993,42.753388529158215,41.588934656094246
0.6328537014128525,-3.2365371345803426,21.816382650298934,-13.282873130309838,-0.08780471638781073,18.67180267268257,6.113561648404772,6.520201213568452,-12.557395231901452,-13.521926877313602,2.2227622398111357,0.6597729651955186,7.276612664986034,23.255935233330405,25.727440660389384
0.6367602057425614,-15.046740390409383,5.32790374412198,-28.17719231739753,-9.074027011113628,9.631217240291523,-7.067473408870372,-2.6675004171602836,-16.020937049023765,-17.045958835964942,-2.1074140109623425,-4.775050805286048,-8.680585617873316,10.601441070183837,7.058684619421962
0.6406667100722704,-38.91448223988858,-14.426148027044889,-35.6745766310906,-26.88001699122762,-14.921355478676116,-16.995795220123167,-23.574332302862793,-40.02642056406961,-34.2879634830347,-22.215121052698244,-35.51966034635286,-20.342978183362387,-8.184801561808523,-6.515114650359912
0.6445732144019793,-43.47676368464106,-18.917917261980122,-48.01592863184234,-43.13932606221359,-17.634146746288184,-18.821773565770542,-36.08494662062928,-56.952197736231135,-36.43284077450551,-37.91627512081905,-39.724669490314895,-24.688257838938647,-11.015504897518255,-11.057130022524095
0.6484797187316883,-59.87644657469396,-28.82249479890477,-58.248844828511096,-42.22585140029511,-29.264011714186,-41.72303920412646,-48.935259095503255,-57.05589259953521,-46.35469961060845,-44.96143798817359,-56.53072434252412,-43.3454107322136,-23.568604363318038,-23.661043000043296
0.6523862230613973,-62.29602748997773,-46.810410869613975,-64.56586458940335,-54.99514387389237,-30.97745248227881,-48.30062503578479,-55.0527142570004,-61.520143272966024,-51.81368362651034,-47.62462910527662,-47.34010299688659,-48.79625995585615,-28.58816706029625,-28.66588762903638
0.6562927273911062,-71.2102041926688,-48.395910924328604,-57.4052769992193,-50.592556540200285,-22.6134895211113,-49.025142908888284,-47.91047240096277,-45.82408821413437,-44.70709470511374,-54.444881229296584,-60.68577058783173,-48.294889126169885,-27.898869735605324,-37.41002632252322
0.6601992317208152,-60.26804296589908,-57.207086739583445,-49.3220749943371,-44.09333571530793,-32.810405292245505,-48.24582112867184,-49.21589739110482,-51.41832289260003,-42.56690747132393,-44.58441181750942,-50.80746610187651,-34.406531609759476,-22.762144587613538,-32.99344621838087
0.6641057360505241,-59.99241373198743,-44.9784504018695,-37.135526343868044,-41.94575360480417,-28.853959896220772,-37.9674197962788,-24.592501286691284,-28.56151545527622,-26.702414479906672,-39.72162518119317,-36.31012834351519,-51.354739004643605,-22.985204957574663,-31.59173721691203
0.6680122403802331,-35.45938587097739,-33.48047217530359,-39.25422542242648,-21.57226667725255,-19.09002883883285,-31.17594935968669,-28.155947807547058,-25.554039732624094,-18.28249211221663,-29.878745449889674,-38.31251550133494,-33.764659014459006,-26.856499322670825,-23.605901599103568
0.6719187447099421,-23.898612623325242,-27.69050004388761,-16.107308889923825,-15.730404510839104,-12.58013499776165,-28.4961166791965,-19.808543899892726,-19.947902439628876,-1.0201781076499188,-24.992316337768,-16.741558475888297,-30.927546377035274,-26.949950670465945,-17.520524419634814
0.675825249039651,-12.67573102788656,-22.487877179009715,-6.555673585545918,-11.874582864506568,-16.676214107506038,-13.087581209266336,-3.01538959389526,12.587784345915159,9.553397246988554,-8.013487763163607,-12.127671315364843,-28.675720289202417,-30.189033973411608,-9.704564899668823
0.6797317533693601,0.8478931192303465,-5.715380855210365,-6.083943287617473,2.139184162117962,-8.996143605634416,-5.414332256496923,5.983879417027673,13.837880637307958,7.612340402149938,6.874091353115666,-11.871493215877477,-16.70328599366964,-27.592141623476902,-5.039214741163937
0.683638257699069,21.06236830590742,-5.950722607842957,5.623793284354897,1.127398591551076,-3.2691637967731686,3.818183794283903,17.734675563996927,27.44533311447631,19.755268103556634,4.341518753964715,21.197184985578758,-8.109267921245854,-12.454512515756337,-2.806396805973499
0.687544762028778,30.130838330457735,15.74604793496474,21.48871302966811,23.501434547405843,2.599922384807332,16.721945004370806,6.505405945829635,28.145726449646446,20.19972516553022,11.857638154411012,13.779058868194367,-0.4181927756798643,-16.969326868159875,0.2482908024584809
0.691451266358487,45.49731924127567,21.2400640377338,27.50007610903457,22.479360313118825,1.4780694636486027,21.032974097403073,24.688986494274054,37.16704109570749,26.30306302446423,21.93498726410307,27.898282152717606,6.0073692082679795,-12.288451384715572,7.223587366633558
0.6953577706881959,41.57583707328016,35.625999548218886,33.58213416730314,19.557773086869616,2.595161827685283,31.273324809666537,20.973516916158175,40.16761192040648,34.36737766499823,29.32639778684573,37.78960231763729,12.011916682392455,-6.304183101921055,9.006362665792253
0.6992642750179049,47.81997207246347,29.54739497068378,35.75365240844043,36.0443541101843,10.975679170672151,32.42656418665229,39.62897503765632,43.35875564906158,37.18270626210109,32.22936594092289,36.97471555848745,20.254634462329616,14.253182047433498,22.763139050737443
0.7031707793476139,42.60159512157347,38.44043788152223,41.37957509055249,49.455500170664024,29.79165439458595,40.90399978096867,44.08202635068496,46.96290989381414,57.20413140400796,41.69349651578945,43.86715252223892,44.95495999809057,21.92249153905565,32.24875690675619
0.7070772836773228,50.04487738111445,40.4262128470888,45.992525546369464,47.14392281011783,37.37755123453913,44.4693647542481,53.87540761034002,45.43790338253568,59.12980363565603,53.01601518097342,55.60863290933436,41.25718014865538,30.60155957960086,44.15692468530596
0.7109837880070318,47.330424588562316,50.26339748328883,64.59069099229437,53.836732959665966,50.18378700176403,54.56939102130851,53.954071028776234,58.673219333109664,55.21756332035313,56.61452470961864,55.04022735559451,64.51097479447093,43.84314774727949,56.246298655334456
0.7148902923367407,46.84466999815858,56.72976207275795,69.59333295017369,65.91934562566333,56.815814379735386,56.3543931402854,59.030523971282925,63.271033200498245,53.21294373246744,67.25654783206448,60.92334315246489,69.32925872921335,63.14630466063513,65.9894141341071
0.7187967966664497,65.87259658695768,61.961999076581215,69.01283646403402,59.683153983395734,58.44297829072575,65.57375885674921,62.670889637381244,58.30013843032833,59.787022486483096,61.382279923475956,55.23447620827175,74.85936313224222,69.98504893127077,69.08669854396835
0.7227033009961586,56.96724121750248,51.39735343720421,37.63785910723385,58.15681374466833,61.41025648911489,52.53674434259082,63.01932590824701,55.977445019668295,56.522739689745315,65.9574698238881,60.893386137181444,75.83960669712215,72.9832848071362,69.84833076890494
0.7266098053258676,51.428166162514074,55.053180241701924,53.47198576367637,63.92232175726227,61.080009240213215,51.76987440195189,51.66339394212052,45.3604651221778,42.39173545570514,63.010926856069545,60.26455467435509,67.82827026678363,81.55938586375146,55.373116694862105
0.7305163096555766,32.85433386655987,46.46567436550984,51.27704070943003,44.641284477475416,45.28174401770345,47.46503591713969,41.93160016005329,29.74454477727779,40.69134743978508,43.990002527692,53.4048955845737,71.84359887822343,71.32445880654186,56.78501809157883
0.7344228139852855,34.68675991494978,42.255837107994466,21.871845339969983,29.019816822036397,31.133036144262146,37.85483064666165,26.844329856096504,12.331745449502382,9.830570003386654,37.38636287447827,30.02695858076642,53.7925937289554,57.724107778716544,36.524940853232536
0.7383293183149945,14.195901546676772,20.168880500400512,-0.6504957015488992,13.365870884564178,16.945246782163355,8.230208779842421,10.507645256961101,9.9010402812731,-2.3431157503782876,21.807116809968615,10.38616393381425,18.101227319046448,44.7104191365806,20.58804933170867
0.7422358226447034,-5.385722740811932,10.608786031458038,-18.013861969629943,-9.877336362514562,-1.4930883329220332,-5.985378013322417,-13.782000612494544,-23.59301401034495,-32.90745160829979,-0.5029759486212293,-14.006800676934308,-0.4313016262888052,23.467332676503418,-10.939395225015147
0.7461423269744124,-23.67294999912381,-1.944213919954029,-43.62222688436454,-29.30525641985438,-32.6514541034937,-23.863672043861087,-33.689353343983704,-45.834994687715536,-43.941635830904204,-21.433809535712932,-39.27803022686844,-27.148115576467166,-0.39770122404964736,-28.214318115076523
0.7500488313041214,-33.6309632580857,-38.79165100117154,-58.64642315276554,-41.82274059784807,-56.41430711641293,-50.070567502553075,-41.019978767816916,-67.49581332548145,-62.0355492402526,-48.74531204466029,-53.675931130351074,-40.406524720846654,-23.179175970859568,-57.39321751249243
0.7539553356338304,-59.382223265021366,-53.315213151376696,-68.91310617133811,-62.40135153284569,-55.340179474863525,-71.04980001074566,-68.25070547655636,-71.23351542919788,-72.84430251512964,-61.82807486300247,-60.513703067447,-56.94939343958022,-31.34871029254526,-72.25779093133679
0.7578618399635394,-70.18417391776161,-68.66664173405032,-74.2610431467665,-72.69371532961848,-73.79613228706549,-67.72400899778992,-69.48827366479196,-84.06092691478847,-85.3447384992284,-67.87446053170288,-77.76515391478377,-60.7989218842355,-48.55585789358206,-74.70329004898737
0.7617683442932484,-64.18262378638101,-78.6797093051828,-78.11795503408347,-72.31102675677904,-75.64837830897027,-79.05284436595265,-91.44768096252788,-74.17801226731405,-75.32467318563315,-77.45004428378002,-75.03416806428113,-70.27328800264885,-55.72590468940552,-49.92059772650672
0.7656748486229573,-80.78326040576056,-88.00058566777352,-69.88007236113148,-69.32712290688043,-76.51769607226625,-80.06239017679599,-61.70948376305774,-82.83021042060889,-69.1470805258462,-67.73215375327132,-76.88482101356684,-68.30377232828478,-64.10504742964713,-73.05607023521878
0.7695813529526663,-61.263659250296556,-80.98506897729123,-61.43530272238684,-67.62993475159406,-68.34629803686268,-80.97693081841216,-64.52230913835433,-62.43340204204787,-60.34863525012798,-73.92946778038572,-72.2276617149815,-67.86094342962384,-72.68945176368841,-62.175470787610834
0.7734878572823752,-56.94158363536594,-68.7988019273708,-45.452108539380475,-59.5504465149476,-57.2888417553291,-65.38409893215592,-61.57428421968597,-46.196196760173336,-47.64307395148337,-60.3777042751966,-55.105554532505515,-48.30107109712992,-59.569027402560195,-58.66234808249987
0.7773943616120842,-46.42942943981006,-59.43957689112234,-23.740213837575656,-40.32130145066454,-55.66962994893826,-54.22546469389206,-40.156858427210885,-33.35922064898943,-37.41447538332126,-47.03795994661874,-52.966021017116645,-41.94782744405803,-55.55568050356214,-47.09620547507992
0.7813008659417932,-33.14627827581821,-41.60749118611982,-24.550539602145896,-25.16738937175345,-41.301351492574874,-39.745962101862666,-27.52506429970356,-10.576266973517377,-16.513558982338758,-34.34763098241268,-32.18990139425268,-34.84011300042442,-59.72636203060193,-34.218731067710465
0.7852073702715021,-7.344540581253291,-35.77332497870642,-4.272456601766934,-6.681752302082311,-24.23293235537783,-19.10834733806739,-20.097808367650153,-0.34736011315189863,-10.202221496957161,-15.830245260503919,-17.272404271242074,-21.90649576278735,-38.38978412867202,-25.140554194202537
0.7891138746012111,6.299392698698515,-17.47798764871947,11.853467256813166,-1.848582224106583,-18.46402271109863,-1.9835713590915587,1.7699893432913223,9.513611271643414,7.19097275232961,-10.024435973995681,-3.8875486477764563,-13.26849390933294,-37.85305810323038,-15.782900983226321
0.79302037893092,23.3777441628038,9.03143235712993,16.857287526003518,19.00861540439589,-4.445611593175155,-0.5165766823022038,9.802227327186284,26.45804331387296,21.485477451677642,6.282610777527899,7.482077465129125,-10.507324472292261,-32.07242055291987,-6.502545661832082
0.796926883260629,30.296017977123874,2.8745177536823903,12.484162007615215,2.0404567656707595,13.391290121421555,10.29011394062446,18.706177474060283,36.92606499045401,27.73285235298472,8.430585788508774,17.9564148437863,7.363978327066753,-26.56048729462619,-4.075139275760736
0.800833387590338,27.956559800226394,14.279021508588592,26.302465427058205,14.071003222242592,-0.5241963756617558,20.25615766899815,24.269252725729416,29.294420268475427,32.18361562175053,17.115002983265583,28.660260742494884,11.203984444303622,-16.988781632873366,3.8440244427958077
0.8047398919200469,33.026665629832316,28.040733384303433,20.242712216608147,23.395430242345927,25.222851762812194,24.92199105122992,27.1265492055822,38.76627780524513,38.54064761511784,18.373644160843043,24.44003233928578,16.45234342660784,-11.766001090988587,21.15871140385561
0.8086463962497559,21.9786222387336,26.702983046423864,24.761983932449287,29.165992145902894,18.653519938577777,27.997370605943903,20.7506260236319,31.47521698412588,28.922131191956122,15.819607401295098,15.608344613319597,12.612866129746003,-9.557669244162492,18.443938215723662
0.8125529005794648,22.42830618503363,30.904637656242667,32.53740117361382,25.396683015169693,34.694200974567025,24.326050569213333,32.25078355953157,27.522217528498082,31.02128396723526,26.44345648346113,25.993763182918368,21.38143977007515,9.241093059991915,36.63825005832891
0.8164594049091738,16.414900997838604,39.82369775189341,24.999320477360055,25.244072778132697,48.272166826798475,28.547506627991062,38.02677183483252,27.599227706978645,35.05434485986368,28.9485476525044,24.177127589213736,28.639745316217308,30.701646510185423,37.70108489183083
0.8203659092388828,11.756064137522273,32.33944274827355,28.977413466193976,38.025812361947864,49.70117909901593,41.16724489020925,33.95556172675586,40.169884926207686,41.20779585131242,27.99969742346569,28.24108770870666,32.442221975759274,39.582980145392966,37.37013064672084
0.8242724135685918,10.815708856346603,41.25757681733427,29.85209575782256,33.76503269858215,50.67705025840021,45.58986533790426,44.48938147276624,21.034076372146558,42.19076039114268,30.0424848408379,32.30967579251727,40.543354170164854,36.28982475010365,61.36866052092479
0.8281789178983008,12.895014483311527,36.89903975071086,26.18718462915571,47.271095264103224,49.389052253869934,43.70429317474863,47.10403244287329,27.039820650563883,40.71162970520287,42.777186644570335,36.43392677047135,42.54720686744322,52.15861421800359,66.77993821629381
0.8320854222280097,10.819583886701919,43.96003392655929,28.78478662677668,40.54988540336027,56.47993806768563,34.97829137055146,35.305712805419944,22.446552740673685,31.444141974647216,42.85016218971344,26.111651013598077,44.62697459037593,57.40476652765277,57.33080349158337
0.8359919265577187,7.880136614019361,32.33329523297947,21.164456728287597,34.59479889976421,48.95138747288424,32.75863788625443,32.62820645621536,23.798164892276635,33.6362497226655,32.12585058404803,27.11131115584555,31.40527201662338,55.830613417592865,49.06127787535111
0.8398984308874277,-0.8517508870684187,37.88889810210791,11.255160006491504,25.66594382132879,41.28900034547205,27.669398539208707,26.77558037140238,15.304510873615541,9.964570871767311,30.506716542008093,14.820135539993856,21.23741372968738,46.886687429314925,48.04380583479805
0.8438049352171366,4.327197587589963,22.768757307430857,-1.909846670118652,0.6624551136120935,28.957031637033168,22.293248607505504,14.689365775952252,10.651625511630101,5.339631598316087,18.306601683428596,10.095219376319864,4.855091241339826,59.81336145813688,47.76824985142608
0.8477114395468456,-12.56230100813124,10.30479826861795,-12.70979838318065,2.0653048869024127,12.86428702080481,10.932383607675877,8.97467123595679,-4.657735557990647,-3.326538555222359,4.595555302849844,-5.704693624385765,0.44413016928034965,32.113321273667374,11.70698814036031
0.8516179438765545,-21.90896233465524,0.30180402764888736,-26.052361171715358,-14.104217194334467,0.1523690309593182,-3.954802032190934,-4.4323613041138925,-19.269543637621293,-17.291935916923304,-9.203095558422927,-19.86318150526626,-22.272229876196278,9.246427361382349,-0.6904201351872659
0.8555244482062635,-23.462262366545158,-13.449253976290327,-37.28884245075041,-26.369051561592183,-13.669823371654733,-15.563801189102682,-18.604789662553866,-26.886074012066473,-32.101189402604795,-24.983294966527414,-25.426991039099015,-33.346784096881315,-5.13020890126903,-21.770278560080072
0.8594309525359725,-35.05392667027729,-22.96249585823246,-73.07064641382064,-41.519789749998836,-32.91038620391649,-26.563455618979972,-30.943301605955778,-35.58084221427719,-36.99108991953478,-30.64891713684991,-39.43411629450869,-38.77362418505557,-20.94390728448737,-33.26916282711289
0.8633374568656814,-37.01054019596183,-24.43005085104913,-37.351995007271945,-34.17033800773122,-36.61277902169108,-37.79422789705773,-42.718016912770054,-36.74615803290228,-44.68195351969361,-38.17608233842435,-38.19338362619408,-44.52800434678877,-27.814776883728765,-47.24140696089501
0.8672439611953904,-43.204135618216824,-36.51027682344074,-37.10002410876219,-41.72698393397595,-58.55058851539904,-47.62352081677257,-36.51625632544206,-37.003672505624344,-42.766815078316355,-43.13814960440391,-32.89013111850907,-48.38935384338953,-36.23566358579439,-47.73839610768955
0.8711504655250993,-34.30097925857877,-39.350484056995526,-26.09301850029732,-38.90906224338022,-49.79476457999477,-44.609494270335134,-32.235682364684976,-44.958874150705725,-37.37101543193113,-33.12959112806561,-36.03842699452249,-45.42475572647786,-45.474079133992504,-42.78475643159346
0.8750569698548083,-27.123730203556203,-39.50067381107524,-21.769523137869793,-39.757971741206696,-41.152813160361866,-42.15096077671742,-37.01879309376086,-31.199908178099406,-23.443076883662133,-27.566239690294317,-34.55997904272523,-32.500683940415335,-40.19435090109603,-45.54767838688673
0.8789634741845173,-9.224282638558606,-37.9426648472263,-11.226318354269164,-11.517424783358669,-32.76730597498551,-28.04638631184489,-13.978366343076388,-19.6706479224032,-17.645019321903575,-32.50453225835743,-17.282223181744957,-17.460805808912852,-28.45199921996529,-33.61188101767044
0.8828699785142262,2.5981271431661526,-30.496322065966186,5.972210019268108,-4.735091547090422,-23.167476634291347,-11.392246359292548,3.8346499415895545,4.078866314425416,14.520326580190707,-2.8020041790220596,-0.8335605467214137,-9.185002420643853,-32.02609217097876,-17.49178747131507
0.8867764828439352,29.398508851848465,-11.403779279382377,26.439849393562575,20.86644079095731,-12.516398612072749,-6.732397301823803,4.75221988369867,19.29547824041082,18.863992285358897,11.968588256468045,21.777844837273225,5.321221257964922,-11.417035878805128,-3.898207282209298
0.8906829871736441,27.065055119052122,6.689964952811773,39.20147808520206,32.31714613957737,11.535430947629862,17.191026154714553,18.42652748725432,35.77741718303644,32.385858943365584,-40.555944437468085,35.83397443576529,29.291170807650335,5.8672588091622355,12.427357019361672
0.8945894915033532,51.26692750160377,17.613690228642227,54.55275647380913,48.30185271489102,17.975480024404362,32.83288453727712,37.08232266029327,43.61985825108797,43.7947791909069,37.11301409035043,44.08332356943904,34.95425091454694,-40.66606273058716,11.87429003685134
0.8984959958330622,59.6224221917318,30.79562600823801,69.80205693984476,41.321338789160095,23.337948530500906,46.36613425358966,49.58330227253574,53.9140859121667,49.99703643323259,41.1509723745887,47.92328487999574,44.470651084177355,24.733331674863376,24.61628870130267
0.9024025001627711,66.46309879738479,32.39020065816254,57.64788519017013,52.05626308403611,22.6948592226694,36.035189434864996,42.99107133516069,46.77394901147132,48.8125985996857,46.296003133261536,64.66644742000959,52.929255521194136,28.909352964047585,28.303997340211687
0.9063090044924801,71.0172004295271,47.27143861999681,55.86763010197577,53.72584801898868,38.49958814625113,48.011405874416276,49.35501201969279,54.25358568531853,36.211880959803835,51.271308311813094,52.78652396802449,54.62131761944303,21.189785134812468,34.52901243635319
0.910215508822189,70.91120259090263,41.75611781108795,44.588466557550966,40.40064107916244,36.470189581659845,21.30130954359348,42.50854004347198,41.414640930382035,40.163614150399624,47.647990978452235,49.225340833721475,38.13612487932379,33.85601153940364,22.205966999364307
0.914122013151898,51.53272012674938,38.83559701969915,37.35472901474275,36.501240613120935,26.3251257052017,30.496637251399363,37.50114533837858,32.00535041522252,21.137121652251235,35.83035590604601,36.16785499986436,38.35284032344068,31.776438243934145,17.224719776646268
0.918028517481607,49.38663326995537,39.17960115457712,33.83544765789821,23.344609640643156,23.5720997221387,22.832770600939785,32.89275813095203,27.27965189056476,9.933185085638648,40.12381270338245,26.14414069948449,37.930005182819265,22.773091067450018,21.335664443435597
0.9219350218113159,16.414989595198964,26.00098098581262,22.87053806157109,16.34690072964533,15.01173083068525,11.186231510884936,18.775821812569987,18.613932546687536,9.581298961484798,23.629664732105155,20.50174794470066,27.140622094622913,24.200630137880243,18.385376867748754
0.9258415261410249,23.403426898664307,19.519435768237162,13.479724316883004,5.6291594823238835,25.472887414012035,0.11238141217627451,6.899757112162123,2.1450305381938746,-0.2361512398547938,14.555037829755088,5.823127633153534,21.67183036673763,20.693127547165506,10.625283400753995
0.9297480304707338,-1.7614952439992786,3.667170984485619,3.7535407583945855,9.685039335390321,7.925077182615169,-4.921320245557968,-4.3387198900046915,-16.79729100173615,-5.09191177272955,13.686251592822778,-2.586736470868954,15.929059661957865,18.52927229108237,19.192768273164738
0.9336545348004428,-18.774746014254728,-0.3317789188332716,-14.835351002173148,-7.492353403085312,6.092642125529408,-15.551747791339503,-8.82152392862092,-26.825276812010504,-26.07249043272125,-13.185286640761527,-11.350075318172996,5.2184380035680125,28.019070884152942,2.754361122149755
0.9375610391301518,-28.867514241061176,-9.180624409423631,-24.137168147743857,-11.12489763358337,-2.3858687786110373,-12.615002727745978,-16.00603587704665,-31.31909661363309,-20.747534808500486,-20.652644056847656,-29.091644699886643,-1.1684019687706273,29.855100426636444,4.385484351645572
0.9414675434598607,-32.43826975762207,-20.658206181401052,-25.04086091116009,-27.127556342213573,-0.3301377423341485,-20.979309213878665,-16.88830323575792,-38.98319178468882,-40.93032655974688,-28.965786351991973,-33.161608189241264,-11.37751194737948,15.373277828911684,-3.7252179199053495
0.9453740477895697,-47.109526175148794,-34.32805309387144,-33.049813737786025,-35.513500496119654,-19.582997625822454,-26.19524992624198,-28.462256301979032,-29.79532838340196,-28.629327853187156,-29.318896694223003,-32.49450765379337,-10.628257665376111,11.428323102332378,-13.806036217925342
0.9492805521192786,-54.47100064294432,-40.62836577485135,-46.22623060762782,-40.060985866890235,-20.63604225235125,-25.399904797403043,-37.09914086979276,-52.73784834429381,-32.20890861709809,-32.91520816569151,-40.60647814861365,-25.025498640281253,-4.533057445747554,-10.66143308426915
0.9531870564489876,-43.51101781557049,-33.53467414573444,-53.35237971979453,-40.416659186183345,-28.762796912852757,-43.72389597976513,-41.09337510391617,-53.0736854966895,-48.56828684078864,-38.90677234547648,-48.510554845574774,-44.271272643688256,-22.536400406775236,-20.66838084895025
0.9570935607786966,-60.686149377456076,-41.81095718474606,-57.477704885219715,-52.04464673222148,-39.037548534366216,-49.461808533967336,-56.459325916922964,-53.33903837683761,-57.3938232904336,-50.373464431423045,-58.07108067920929,-42.83183921996668,-30.785102694477587,-38.64503829721715
0.9610000651084055,-48.96666029786978,-44.841222754143324,-66.81646528403783,-62.68086811511087,-52.070339543579294,-55.4958752487334,-53.618456168669816,-52.82583626974051,-62.02465509857214,-52.989562068874626,-44.603305786020215,-64.65544295828678,-44.53588024958823,-50.69278593477173
0.9649065694381146,-58.4917857254281,-51.06049297046622,-71.92642466912885,-61.83059082118022,-62.283322199349534,-55.75838391018131,-58.934051673973954,-56.368252295104995,-56.260637305816644,-64.1928455313437,-60.47976967117958,-68.31575067113786,-54.304425705385526,-59.80322507383872
0.9688130737678236,-59.24117548974408,-54.17655029208145,-70.16978262369894,-59.88555727762885,-62.69478918754067,-67.96541553963694,-56.63495570043941,-52.282516151745384,-62.16185600952987,-64.59071508399168,-66.57457578706853,-77.68336774713622,-73.03077622107959,-64.62774213208817
0.9727195780975325,-61.74176983233376,-51.38913826537031,-62.94949786909335,-66.28487302769543,-54.6842932966754,-60.65138945941042,-60.555322618732525,-52.18564737902524,-64.86802103507402,-60.64202822060624,-67.39984514048741,-74.65071402331695,-74.38810694415174,-67.85812582605134
0.9766260824272415,-49.218479924352195,-53.17737992249894,-62.55811706933944,-58.52244753575896,-61.37635330628845,-53.37763357451014,-42.86239846594734,-38.72126678492391,-47.00479862305108,-48.65989972488035,-51.73699746529582,-58.48886214397929,-89.23543573904514,-64.4474348892726
0.9805325867569504,-41.860648042515315,-46.65653331922918,-35.77465674534653,-38.29305728418275,-48.94066324752975,-40.07276964730219,-43.20708525783693,-27.077153373039273,-36.04591475339558,-53.29613879948234,-43.13523552478999,-61.35147573261646,-67.19425668389802,-43.01964249715466
0.9844390910866594,-29.42140976329819,-35.047587180451764,-33.21004621885781,-34.661768224441225,-15.812459980180254,-30.65491703718435,-30.410929539955188,-18.021695383879653,-12.1367767066636,-31.803425766328335,-31.776154705729404,-39.21873875678956,-68.5941347528069,-25.411059577487034
0.9883455954163683,-23.42367414400838,-28.624313558355652,-7.772065416844953,-8.006971475018345,-18.32612660408079,-14.675150556601418,-6.24932811989592,9.935624294151678,9.106540927833146,-17.4093443460082,-16.0533160240293,-19.21802655827195,-48.940351855501966,-4.260904853192066
0.9922520997460773,1.959193305918446,-5.793906047061155,11.965037040454757,4.255016487747537,2.6772874193281204,6.202771893558909,15.533621530691343,23.875750475080682,32.645560482162004,-0.754077325312382,12.368447038980781,5.3089882188507875,-21.53313196856227,7.69300787830572
0.9961586040757863,17.856207335332282,5.201982943915464,30.491880995124454,37.05375324609097,26.304870029047553,34.28744601537236,29.870675750946,37.87484186367714,50.26184369969399,24.61782236105931,37.91928118155835,10.51165039826735,-7.114202102104833,30.4264568796761
1.0000651084054952,35.8614754485286,39.86550523553398,45.412996259870454,38.95867968085921,48.97274734228495,44.05290546473829,50.93210843894691,60.24845001646881,71.72507351181441,36.362546226473306,54.40362410347074,35.056688777665286,24.71266861054935,53.25248129017047
1.0039716127352043,52.74378684628692,52.037771388666314,64.44137044607304,65.68017480036913,67.52876246968293,56.43870934174432,63.80218412538655,76.48640494269614,70.01330389191455,58.28616142060238,69.40418352660625,56.75823958505206,33.66007785102644,66.51151904288525
1.0078781170649131,73.74335912793143,73.57780735225911,74.38752563083237,76.90660582397713,77.5776074045615,79.27986190113207,68.41301000904862,91.70399761688245,75.36882307146223,70.0298705093037,78.34401324089653,73.61558892606831,47.96961756921813,66.34861007496728
1.0117846213946222,76.26786755588459,75.90562263249127,65.97395501919958,75.03955357207579,89.3800463229111,81.51479088753953,92.83157797450674,80.50608459614578,72.6457570172169,79.02106073107885,70.97798240847783,72.66436964466486,58.74576173120439,75.26184668551058
1.015691125724331,68.71522449489551,87.54042213484503,73.92998601544618,80.76643048825207,80.60871479187468,61.15970611297367,71.0803685749294,72.83302645997335,72.51301102528778,74.02624038596122,81.78769714881903,68.30913142773194,64.15031528992523,70.37207317541734
1.0195976300540401,63.4430149513406,83.53621480873474,62.25326422567456,66.59354616066301,70.02497534477119,67.9427915968149,64.19997078279044,72.39259318801393,56.61434832416439,77.68383201892465,60.54068355138125,57.09706269225528,65.30186516881118,69.11488920470843
1.023504134383749,53.13514690389111,75.6381808080168,49.590228097306536,48.53710234404858,53.14291417437938,57.67139380195109,48.42633129659386,56.090876272316386,50.257178846052064,65.78992000412235,54.548093119268266,51.51961179697686,64.34538627073438,58.38596965905597
1.027410638713458,36.450324223834734,63.64059197778747,32.204450890649355,46.68096894825206,45.80272983384312,41.76724586298949,41.408706712486975,41.94260262404607,31.834197466981962,42.913239481086315,38.80730728465352,38.11070110641051,53.47542038031689,53.06958961342976
1.031317143043167,24.4183371732277,45.001347677359625,15.64109085372343,21.81259085459439,27.089502164756354,28.376996992997483,25.840206377539456,18.029670224825498,18.783659431023615,25.954821420228313,25.683531307284373,30.355824402585128,42.09554182724099,75.50690749630473
1.035223647372876,4.678653162562329,29.037318114994935,9.711579950004447,21.105393638382534,27.806930744670375,19.1632480936474,23.817496417193453,7.418746006577264,-0.7462513997271865,22.24998884088778,23.563586876708964,26.14236287528851,45.147487171304846,32.693750633878125
1.0391301517025848,-2.0417342411445714,5.001614839088681,-1.588193854313416,14.32535420372196,20.526561660143443,13.707314521039322,11.563485424732226,-5.75965554882609,-4.350857853374749,9.833526267917776,-7.426098712407571,18.791082992015415,34.15731043664425,13.470662359575101
1.043036656032294,-15.26774358177712,-4.079621847476902,-17.773518555493727,-9.870306808150957,5.6433175808668326,-8.060825946379083,-2.019881017537367,-25.41249599826352,-22.966475015168978,-5.458311389798875,-16.79976369965425,16.050493792266224,33.88300535448773,11.361005828861853
1.0469431603620027,-34.315858498885795,-18.83457497786889,-7.793217746323368,-8.950020605222416,-2.462177992491368,-9.631117138651641,-15.560991525111763,-24.351541961642706,-25.025666602708654,-7.114525075470032,-16.773353469700112,-3.606144253721319,30.68759311839063,-3.782917937032943
1.0508496646917118,-29.78355891946938,-10.338143187206349,-13.471703604484663,-16.565330039154176,-12.133955015956444,-9.181780962561797,-24.765887105359468,-29.024203536405807,-13.422477964234039,-8.945562324029884,-15.254496791996084,0.010703979255187512,19.400928122625714,-9.652023721688169
1.0547561690214207,-31.688990266751382,-21.14876715750367,-21.138366094753625,-16.734230106621123,-22.215311016508476,-25.703481536902007,-26.368368432283802,-29.157047730492756,-32.202226514425874,-17.545974109453603,-36.15447530354999,-6.37906054518906,4.848408098779869,-18.279040465231827
1.0586626733511297,-23.77152197265655,-37.535197861086345,-16.324762598161975,-23.530924095933628,-28.01392574662418,-35.242117486671205,-30.62736165221821,-33.534842971835026,-21.956359483310504,-25.833871646711643,-26.161551215016456,-15.146860217417306,-4.4046985635708,-24.63198495679962
1.0625691776808386,-56.17676902379708,-38.46258934527131,-25.95356572827583,-26.503467611350025,-27.91579933071145,-34.80554818576387,-30.309038357535606,-37.90759894774447,-31.650702424513,-21.378675070187185,-24.313679113842856,-23.60626515698393,-12.279067913563901,-28.154564515006086
1.0664756820105477,-18.790501526736573,-42.65529412563379,-34.60314413850362,-24.638113428975302,-39.270363273207096,-29.963960338921318,-28.226465515845394,-29.80645701353088,-40.61480281579919,-35.189356805208455,-23.91235381338243,-28.185368198996496,-17.74398452730914,-38.47377762619279
1.0703821863402565,-23.83524723020678,-41.17288297362897,-27.684106555390056,-33.959820923986044,-47.48450463741034,-51.73781843341478,-39.109182209227484,-32.357309560696535,-40.10730338645055,-37.51958126291906,-31.94352544687891,-24.976614379508796,-30.648236611684286,-53.91257135258259
1.0742886906699656,-14.389469011789263,-49.40161766519935,-30.775206468271012,-31.129286129152206,-56.933079069514264,-43.07923686726788,-33.21568372894613,-33.295802401220634,-39.22619760109574,-30.053360528294995,-25.71829058550149,-47.223923441015174,-45.97626106312761,-51.6209508699234
1.0781951949996746,-10.76361783846486,-35.892768710047555,-18.960391983211988,-40.26375989943444,-56.74051118337041,-39.775517395106164,-48.42366683959554,-33.23925655536329,-37.02193600424165,-36.250092796668966,-29.491847712368063,-37.238427845249134,-51.24532436257168,-61.096727515205224
1.0821016993293835,-7.546057849206386,-41.035648699366924,-18.158806514816995,-35.29372807632401,-50.491109629353396,-37.109469353912445,-36.83781774348229,-24.102977623112324,-32.98208249739366,-33.87714912126617,-31.033896150088857,-39.778609975003924,-54.63629392084556,-60.54496577808359
1.0860082036590926,-12.473876411918372,-42.251590407364795,-18.074198949229118,-36.84947255938757,-50.44891566817094,-96.53234017165096,-39.825320126914676,-21.751091640810486,-23.17868324543589,-32.936278111360686,-31.280256354879924,-39.66100704155611,-53.008294679257936,-57.30078535342345
1.0899147079888014,-7.455535653037027,-36.04578340820254,-18.042665859516173,-21.52710825492492,-32.96032137211389,-36.98645889716357,-26.423143300522117,-16.45635234858494,-11.189498184362549,-26.213436366441268,-21.520806685356405,-26.47782370670601,-45.659539474954165,-43.74246056225402
1.0938212123185105,3.6964900611913536,-24.146673165175354,-0.592480584690133,-11.133965231220431,-27.333282836700125,-18.822083281266753,-14.043951675349067,-8.924736836812121,-3.9865527207181053,-17.74951174803278,-17.540466838172563,-9.150339961897973,-52.17707106113324,-25.413106932242606
1.0977277166482193,5.971622996238542,-13.666359112934026,-0.6054743075402733,-4.135378088532622,-18.30316455379548,-11.020183466573137,-0.7268637059241889,-2.100228054701259,3.672311209822293,-13.24920628218975,4.7951423308872485,-1.368136974169306,-24.33580194072887,-9.511439856927044
1.1016342209779284,21.450793045647295,-0.6631815930063825,28.439963565411347,6.8668437518100625,-8.155283078677623,-2.03589740293138,18.32109010650818,15.294103956738049,26.025042329018124,11.591146290816022,14.417547230555098,12.80494234205527,-7.754278955445642,-1.2100780477201671
1.1055407253076373,59.14663892508467,0.9533488353474509,31.469855075643345,30.179841705497996,23.574736809962456,13.312988876891112,33.50788384428795,27.61489515369635,22.499198876782714,19.140132993306473,27.184550646378288,29.200999073681817,1.956978254207891,14.041663960516388
1.1094472296373463,33.955164724739596,22.31471366622574,40.735324582234824,40.760359990519824,29.195251880718615,36.65717296034822,38.50012533868948,38.587524042608536,45.573206652819984,26.248830852673365,37.00942055165014,44.548570231115114,19.361298813003692,31.313964944391277
1.1133537339670552,38.801686378659404,30.21174315846106,42.51497758534579,45.78848827107811,43.130975756842226,39.84971208695922,46.99421230637727,34.136686156274244,55.745298212194626,39.51773886103586,36.55023387323949,50.99961631172434,26.873735729007926,42.596448664619224
1.1172602382967642,28.61571052256643,40.12575097423985,34.08058546566066,48.616213948208596,51.21127256600982,46.72501239496384,48.54157792534886,44.490601213408,45.51717235992661,41.698318949758104,39.81222218161982,42.10394050692688,39.69774023491263,42.084627670038614
1.121166742626473,34.50144266342052,42.63180698978654,27.536257364251433,37.55181849692903,43.89549467828739,47.29403268782735,32.614497732036725,36.36391775455574,36.4625704356525,46.741242173193534,32.81302362331512,41.72147983502574,48.00832588476469,44.55755688901067
1.1250732469561822,18.95704929675321,42.76420351538162,24.66649904745748,26.72542398130519,46.10875648863222,33.404635991802365,31.716324129955595,20.313671655639343,32.19370815874871,25.20560852568021,32.87048779160896,38.87994235600117,36.60635077678419,42.73992073913212
1.128979751285891,14.712019252897694,43.144364871893984,11.99096055670326,20.743786147093978,28.722209365882332,26.79797349770518,26.509750614858298,14.259436178588809,5.659238939486789,28.135102530351197,10.577935220396647,16.32325792224601,33.358127023203274,22.847130312632277
1.1328862556156,1.4392401460440007,25.857463976965533,-11.855672300566336,-7.649596287378565,22.091549952784767,8.664494750411105,4.58761643933209,-4.954837786461717,-51.49989051910686,12.331015550275417,2.6490535235321966,5.018036137673795,35.488099150464365,16.199550317065373
1.136792759945309,-28.909182069318284,3.9311935065967534,-13.546130033727596,-29.978970297748937,3.1543003776931693,0.026168349111113542,-2.0221397522371802,-13.344390377248864,-22.797301094762197,-1.9311014045900476,-16.779305285953264,-4.51479179306097,6.614213789925486,-2.0916258645241115
1.140699264275018,-25.944456766350875,-5.258128038596835,-43.157642217772256,-32.425796924425526,-14.429007087748124,-27.82826810630349,-18.515783101758547,-40.69065511624447,-28.899161862747185,-21.374716117875227,-33.19183899570333,-28.750294017173673,1.608979084617229,-5.58395336813371
1.144605768604727,-53.80205578265889,-16.49453234515479,-54.69738800759292,-46.17724641313711,-23.412842508767394,-28.1169445708715,-32.137471614785184,-43.630448071991815,-45.022742346955496,-21.92342663780621,-42.94868018170729,-41.52423409579303,-10.789261747001843,-17.226818686021364
1.148512272934436,-60.050781741355,-33.76571687676797,-52.55333373366348,-58.108810845661516,-21.926926084156165,-47.403422261330526,-40.654503198561095,-47.134157343145716,-44.51880350154877,-42.86906261553627,-54.11546799231657,-44.14053121382271,-19.208569476481344,-27.382092972853847
1.152418777264145,-63.37935026087233,-43.46998765553521,-60.11606180407048,-51.40369698413206,-31.254960794342637,-45.88171474776007,-51.51348072372025,-54.52020771212108,-51.40634873689845,-51.12937852907263,-65.71155735075793,-43.74244381723889,-29.922125441539865,-41.51440740541616
1.1563252815938538,-63.72265944063044,-50.74137084617873,-64.37771962051261,-50.04746957379539,-41.68970836380064,-51.26300020972403,-41.13639767350539,-67.00611990316116,-44.81657379414197,-48.07513470877215,-63.910814628824085,-44.61931478388514,-21.476432893302853,-25.43276571214914
1.160231785923563,-69.79131937977515,-58.32153821924365,-47.02901299456213,-47.96567705722911,-31.085087054239285,-45.57675618713884,-49.72254063690286,-47.34295990518035,-34.066549464769416,-52.951116335500906,-51.397169506321084,-49.59354961082977,-35.35976461132531,-30.03025839040566
1.1641382902532718,-51.26347407492139,-43.191960478901436,-42.29850521128219,-26.356810218384318,-27.684779548890226,-32.60625376369899,-33.53619524952712,-41.71800202458091,-27.532107662817584,-50.50593518392352,-42.50524634459786,-44.79599533027158,-27.188551896235,-27.26282136640061
1.1680447945829808,-40.11180999908122,-40.78327286544722,-31.58955081713905,-29.612610771702276,-26.85296776062635,-22.371037791522888,-22.607872877488273,-29.577660405952543,-2.069712754630789,-21.44424885002138,-27.061080557427477,-37.84197792529974,-25.870554859761928,-20.61550543396042
1.1719512989126897,-18.093018867045163,-21.630791210038176,-11.821893303835997,-16.442778118545718,-20.899449614329452,-12.213813886524026,-13.619539927900277,-11.633191374284799,3.591153872874555,-22.469736472806577,-19.098744022034456,-27.376740810687174,-27.806995989647163,-17.327653350911277
1.1758578032423987,-10.577604446269877,-8.258876571003047,-12.268308055443828,-2.390378971724176,-8.93341854172344,-14.406056071245033,-8.083124631271927,-2.8840794910010485,3.943389122351778,-7.414470149176987,-11.061538571871726,-23.414709562366305,-17.433216168110995,-9.565206933923223
1.1797643075721076,2.5609272344795624,-2.672895890610323,-0.2301827944473036,0.5020786373466005,1.008878604501886,-5.528008599690897,-2.577860352806458,16.75884824748542,9.76096663300075,-3.710943481877604,0.9226440989778006,-6.013157932090053,-24.371224262156463,-10.171845321114498
1.1836708119018167,21.00226476246119,4.023702046029081,11.917448584337286,6.446305462667024,-3.7570170078029816,1.6389951491839403,18.523994003482446,15.587781061079369,17.176926353120642,4.353303183641927,7.1741950672455,-8.380050009981312,-30.292255268495822,31.328421242407586
1.1875773162315255,38.47397494602489,19.957785835162717,21.432934003694964,18.435246301940513,2.291946478318179,17.911314970169304,11.79888668584308,28.481078336707796,26.008559857234665,4.331604771203867,17.002522320735366,3.8491495036904784,-13.995327956078356,-3.8663313262747314
1.1914838205612346,39.390602620499074,22.005380171058583,26.289470232417965,28.145335322786902,8.201483620399376,19.160076255440856,23.157827834559345,38.19981238852303,20.569572348459637,25.19230017929165,25.433853771152148,2.4954863287007605,-18.82630473855984,5.950381847692151
1.1953903248909434,48.28977365976243,24.031977197413415,24.785868957202496,20.51754882700346,18.42324741735098,33.94562635153462,25.68505589462309,37.46575046469705,31.891261421672116,22.0427066278585,36.77620192391725,16.944372962919594,-9.479309842895434,13.150578037267262
1.1992968292206525,38.92177298788772,32.45562484838492,41.13110149386702,38.447111713316694,25.933025550567493,34.32824146539624,39.812866151152136,43.30850370509694,41.49436950128357,32.07962203683376,41.30519970104249,26.776442552335265,7.669776459211721,19.096504339509966
1.2032033335503614,57.059151930653165,38.203117053006544,48.581568765808534,45.231890070432875,27.76580165919746,46.32448666271352,38.62921476052215,56.32287750757489,50.306336015772395,41.30904064170807,52.17970946332814,36.72738989314268,11.386902769944438,26.952410045151943
1.2071098378800704,58.944963635465456,45.23012223689458,45.883166303142204,47.23057962455634,47.36245628556439,38.37700389205823,50.53662533288395,46.78426603287664,54.375234125332156,48.69978592327124,53.49992984229358,46.10636687322992,29.244963161680666,41.40951165678779
1.2110163422097793,56.570210723171364,51.565571017746095,64.88808071023004,71.31460738455857,51.00985004926821,50.67505952074425,61.980874153784484,57.4518671526261,61.83226596740036,57.880902200767245,60.20154767539131,57.53630041188593,44.11598392442323,45.231510100388554
1.2149228465394883,46.484113127341075,51.22185102300172,63.29644219745761,75.2741439550445,63.051246951923154,57.40664183572723,58.9763632612376,54.18127407967214,60.14568722130734,64.60991946919854,56.727309072407195,66.89415434741801,63.1323266851935,60.886195731671286
1.2188293508691974,63.25980513902432,69.73914057948224,62.45703072976297,73.29988057337542,61.556337159419286,50.223829824873306,63.82370302750901,56.78275590404324,60.983762805684904,64.44708444372853,73.5976063133072,71.53057138635758,71.73902920033976,56.314949022597354
1.2227358551989063,62.632184193557045,66.65686339608311,54.93268449490631,63.965590294649616,59.68040789856867,61.25531499802317,55.63009500014652,52.43081392481846,49.87624995087653,66.6744469248769,65.3458070933826,73.30355290500154,72.71260577776299,70.31021803814599
1.2266423595286153,43.88514726520072,58.45124357763685,50.21475194888029,55.05087693002429,52.52969603159332,62.719553570815336,57.74417055632985,35.48027608749592,65.71418295064464,61.566870114880906,44.612754467574256,70.4376162614607,74.43010775916373,66.25692249861417
1.2305488638583242,46.49524948903813,47.293212620527015,40.61955056100613,40.31412292929653,44.420515483452384,50.98176014460898,40.507546402146524,24.018556841311348,31.043103650232762,58.555224660694684,39.735140398962265,58.32282305310463,71.85522517478104,47.55568900151085
1.2344553681880333,31.67157845724621,46.570266977915416,22.32189879396005,21.379951184248853,28.144974837658804,35.77690453508205,32.78365814149396,16.44209020352187,8.102309196205969,38.14207163168488,36.82698557586822,41.41805678950872,59.416182174375706,32.439721496280754
1.238361872517742,11.92225965378572,18.101822414802225,4.217220289094599,11.959618959458227,13.836884731652692,23.630698680000634,3.936414852223718,-4.026368696682273,-8.36368755662714,19.2770950272525,12.07718177865379,27.043190394660456,43.01094179416958,13.548077951497318
1.2422683768474512,-7.657441384359104,6.480258183267411,-18.448944750020807,-18.82720010783534,-0.5547198023774929,-15.513812885456712,-11.928948499322733,-26.561591947596806,-28.100251562763663,1.4670220020973725,-3.9663687832600756,1.8699642333391002,13.935291377712492,1.0970177042476648
1.24617488117716,-21.674655052241498,-13.698771644986458,-34.43360816388392,-30.14494936379562,-35.845336990778875,-25.109052190112777,-35.265904703845486,-45.31938701025644,-60.56027343331625,-20.380021834215032,-19.601366611165595,-24.746292837084262,3.7101442340883337,-26.878355401524328
1.250081385506869,-35.92893428691571,-38.976760696906844,-55.45865480530203,-50.63176046495364,-57.13440442323304,-51.38895495640436,-54.04907408599624,-60.466145622000546,-63.39045553737816,-50.12295027187884,-43.30500515030598,-33.54104584512974,-16.73039634269248,-45.030534610497455
1.253987889836578,-64.41776423062662,-60.26914877520419,-72.80239933893778,-65.92234956103958,-58.80126074466454,-62.26697641326191,-64.19535116293406,-84.75165400750731,-77.14004403683249,-66.03456846782055,-71.03293440825996,-45.629168947139405,-36.780386555220446,-57.99023386647565
1.257894394166287,-66.4358824791257,-71.31382487695235,-71.99587202240102,-74.38267395547086,-76.7332379476444,-70.92716793831445,-79.30929952769101,-83.00517990704296,-72.2239000196521,-67.42292704157909,-76.20807685233909,-62.14226110258869,-55.06694249555479,-70.47303992780829
1.2618008984959959,-67.51036068014713,-68.25760905902473,-77.80819995096465,-81.31225397070143,-77.38502906024739,-78.38248032456028,-79.42839059561312,-89.79400459320532,-81.90606703333195,-77.84050308233431,-77.36524416283478,-70.2961873293064,-62.15829831453047,-75.4621618740013
1.265707402825705,-75.75910474909315,-78.12204612082755,-65.75558489442959,-72.89847342926393,-79.53053387804003,-79.23185993528224,-82.73260146396585,-76.9065075391861,-73.14532109165191,-68.28028810047607,-74.60377094493096,-70.36347811784796,-56.13246911780238,-90.14432342930374
1.2696139071554138,-61.54472713226701,-82.16207402829515,-46.969149781586296,-64.67241687421922,-63.222236601535016,-70.4474201604715,-69.99834981367243,-74.1004341337688,-66.76198558912196,-64.36616906973427,-69.55765100319272,-65.5727134573789,-67.06797091644097,-61.05820213188875
1.2735204114851228,-55.315012591058775,-77.6001728327307,-42.43299046019536,-53.439559343835455,-66.09672542353097,-62.70044972435942,-59.16241890481867,-54.249039168458985,-47.60011476532566,-61.75592521424471,-57.053721758748296,-52.741342147483664,-66.48944370355129,-63.327620450485924
1.2774269158148317,-35.656660144263014,-63.660079245812184,-23.681878967645947,-43.73707829831563,-58.065090749435285,-57.50600242491586,-34.9621214010924,-36.79315787537736,-30.41030355346909,-53.1128798513644,-54.74795841270027,-46.07028704822516,-60.03420047855128,-51.04660383635177
1.2813334201445408,-26.249826646049993,-37.70772423296356,-17.239457693160414,-28.073421450970585,-39.50533446819456,-39.97410210337912,-34.23172025304305,-15.29336978881536,-12.76003609817476,-41.29089312349095,-28.250802921587468,-35.165846931170776,-55.38859836922758,-46.85870209928227
1.2852399244742496,-42.588099058521294,-24.563240527150104,-6.861295013550502,-21.698533887125034,-31.16118624177854,-24.02050435043244,-23.09664641163171,-9.835279658705094,-8.88236877495119,-19.506972242259938,-18.618687020946886,-29.43504037523099,-45.19564086199541,-36.92037580809749
1.2891464288039587,10.524949857845717,-12.45125321689786,4.9995911092180165,-1.576311121784769,-17.288661149591945,-7.647602333574349,-5.806655051021286,3.9813970196505215,3.2319219989708516,-13.831557981975632,0.2760663910037211,-15.708512967839457,-34.59756071304389,-7.895898497183895
1.2930529331336678,8.106951483649617,2.907398278611201,11.613792970820885,-2.3293233204038497,-0.22311247632245923,4.151597325840873,5.627030202628805,18.721966207445277,4.613167721644039,1.3045837026363944,11.690336838787232,-0.28048987819222315,-26.916480338901827,-11.43922877556761
1.2969594374633766,13.236899360492114,9.180826938318216,9.361099094194408,17.346796737877604,-1.3800381007068667,-2.574308616762849,6.199933268348792,21.350003923580374,17.05033242209665,11.350198839661303,9.203121639518265,2.662447469073914,-16.495563919552545,2.6889825419079525
1.3008659417930857,30.550620448936712,20.81743425867755,17.499493255409018,19.388867683407852,9.488854800336485,17.2606759289827,22.96477860915237,24.27085494369417,9.370168648555794,16.893712022389458,17.748649986070845,0.38921406794876656,-20.531239860673743,3.086986975422797
1.3047724461227945,22.776019450530995,23.68009648036329,17.263339570560998,15.888161587378773,18.405169393098344,25.372454095995014,35.461709130570505,34.12727351089402,36.56109848891343,19.394967411867395,25.757009409802755,4.722637201717359,-17.77654080870972,9.754802482405587
1.3086789504525036,24.824243456798747,34.46093325931777,19.293872154044514,32.70761750788401,18.040096738335475,26.73685387281216,28.116009918315566,30.767829123815677,31.48309676526375,32.579759322004094,26.118676785270534,8.748148925146195,-4.755207466913311,12.77500885142116
1.3125854547822124,23.144730077126166,23.057029085017895,17.978638493918822,28.764642028042513,32.93430231722198,37.231394049424246,29.030898579002997,24.963370852325983,37.25931989588435,31.749399025120695,27.89025821775308,21.069616299243187,13.379966477683869,33.7851736715937
1.3164919591119215,16.95702469098799,30.13790295645586,17.00643307995424,20.610174523464515,40.794542619283824,36.79649639669667,35.472766100574546,23.56460890392269,26.406388292113114,34.638000247551645,27.99952272226028,26.479086061303164,27.117878330437367,46.68346959933208
1.3203984634416304,15.576923537495684,46.36275014729553,30.464705407838938,39.48843254543485,47.024626626478174,37.38089442037242,34.62743838365772,34.975210790531854,34.822717178299456,41.44445510282878,25.147458221705165,32.377559777258654,33.04488548660313,47.037369951052064
1.3243049677713394,15.544197378630384,28.798897640192614,31.484299361938817,37.513641277742096,59.65354505622982,41.79278024712423,50.00751802820693,18.95086141894207,27.863979423667786,41.52291644459446,28.992183800482515,41.06333473839558,43.30427338953846,59.99375061040082
1.3282114721010483,9.962571453115205,36.403739761571806,8.699675900001196,33.675270290377576,50.94813787962222,39.24496032638241,43.041384726903765,34.75329279198501,40.14582719048382,39.11236084139422,25.00225023277435,38.079182719829014,49.156622576461075,49.34244810138505
1.3321179764307574,2.2312882114547357,39.98723119092976,26.523877926022358,33.775975562475956,56.52972978047434,41.637955926373195,42.92392510457179,21.536540830690544,34.05689281394452,46.09446864192188,28.0361409295341,44.365759073884426,60.21994307576391,56.011539583215445
1.3360244807604662,3.738143789602949,42.49061750555811,7.54726070873498,30.764448685668995,49.51232224962279,48.21880303452744,30.793953094616693,9.070170350292425,31.35283534105085,39.65388951411648,18.646984555601897,27.00354178220373,62.444885181803905,52.9988838578229
1.3399309850901753,14.527072865078829,31.62070414653326,10.346548936267453,22.024750741018522,42.80614055192728,22.830560140322007,33.911454933163014,14.371165783025226,16.991132819636444,23.69339758526464,10.862978317093805,26.687436463602282,55.748949115793486,51.230282444298616
1.3438374894198841,-2.4698998797125085,26.27042819182725,10.56773177097362,17.701358674291747,38.942390234211445,17.55590714045757,24.378296316517883,6.393853616680252,1.1103519311349892,13.309289564351072,7.7772237469614565,7.83546060717295,46.42195551614191,38.62771818286829
1.3477439937495932,-9.068280076208955,15.997492631774099,-12.21870802596654,1.6113580226445001,7.981039198635854,7.642151738255121,1.1625353063033677,-5.212574028975075,-19.0671183250996,2.7847526026842324,-0.6545256763784364,5.45639301799664,27.825637512372108,20.84819765746433
1.351650498079302,-9.028837489415594,11.974291131572583,-24.561959491198813,-10.880772404134067,-3.3987832643485967,0.4698016247705725,-8.401233136244143,-18.24429896303194,-18.83274886243752,-7.037992620311136,-4.572205019774328,-13.98782835766666,9.13871286963018,3.8606340909848695
1.3555570024090111,-18.918881618914003,1.0235156907026877,-36.18345008130792,-20.0288171617687,-9.662331361962902,-22.792394351854956,-27.70203906595357,-29.237317201199453,-32.0983868039385,-17.574952414542466,-27.368047315986768,-21.92560193145464,1.8012997565034925,-18.374330575136696
1.3594635067387202,-25.402415405551984,-13.463069195931569,-37.91966550601746,-41.20701706527285,-27.720525883584394,-33.110057307992605,-35.12889038709702,-36.31146898054859,-35.89810954823447,-29.414019781988404,-36.527273484109045,-30.235517521580938,-15.612164462182275,-34.3843158043831
1.363370011068429,-40.35940805800119,-24.295074600553104,-44.21877169840706,-40.32036580262486,-50.11421959332885,-39.755195469396234,-46.16834977344013,-37.94317326849066,-48.03752855183084,-42.56665303889083,-41.72134345671541,-53.693888604500835,-27.85112469127428,-39.71518797463503
1.367276515398138,-32.248936258635645,-41.16303066296665,-36.10428731648771,-46.09299828535152,-49.96281648210396,-37.96462095251707,-40.416528515157296,-37.510510772092694,-47.90761244202656,-44.131851273496466,-45.393825708447295,-51.82423076205404,-40.52827996622896,-48.57433445065402
1.371183019727847,-30.248986279404527,-51.14278826200127,-31.11666501215535,-55.89219705308996,-49.33769432773153,-51.58112429898913,-37.56330099821853,-33.62347254160714,-36.61478022967279,-40.21832329798502,-42.97878757765741,-35.528421667528995,-45.18287133310037,-51.589359438287325
1.375089524057556,-32.43185837706761,-35.83893052230117,-19.56515145792243,-26.87142133586587,-36.93525716967771,-29.521776689463344,-28.32652185055321,-31.227219051011602,-28.826686939069212,-28.62869844766692,-32.94762820789415,-30.17879685407066,-38.863958601074984,-40.79652527870231
1.3789960283872649,-17.144325677535097,-41.05734615123301,-1.5565514349536826,-17.58179669422145,-36.89196465915202,-22.214751091590777,-13.608155836115316,-14.434891948397402,-5.370003772098764,-21.650304903783688,-14.14205125393898,-21.002109051845082,-41.503877327921955,-23.927391437922516
1.382902532716974,-0.31057003635953073,-21.47489635903941,1.7505573132648937,-2.2386800007168945,-25.3626984340276,-11.335159421098957,-7.769286390890352,5.853514392825926,5.143039580470603,-12.97434255983669,-0.5610034901678893,-3.0281350047428903,-26.96962534300338,-17.99419813321155
1.3868090370466828,20.287951708575356,-3.104356481638458,25.342190205086926,16.107223390966922,-6.931420490059916,2.2756117561170206,14.8495992110157,21.83799168341597,14.43664887680547,7.842187406570533,14.003916306357818,13.790540168292472,-8.721226266022532,-6.88839070069495
1.3907155413763919,38.118856766245784,5.692453370045839,46.90916275338201,36.393998727351395,-2.0241438625242214,17.73776959436407,21.44387834180908,39.90463805107768,40.10570463979723,19.342295911700134,30.37981984033869,24.357783138921363,-9.509666685060333,15.391796113329148
1.3946220457061007,45.12846814133829,16.787363917318473,48.13721889605016,43.13300400978744,13.132088213668993,34.25242225640634,41.52571310944079,43.160118356085626,35.995866585149685,32.06503318746759,56.790250433544436,25.60941604088816,3.015512151447827,14.500299883564928
1.3985285500358098,65.12735671095817,30.033050374347575,58.414821184860564,47.51377206343551,25.594956519628518,37.23763985658305,48.33282373690895,55.04681487285446,45.16883230207334,50.52856995309739,48.83810363986307,39.022660574531066,20.8351976815382,23.192213425851932
1.4024350543655186,70.48766482409901,43.52371117846788,61.96680679382496,46.52318931516999,28.083906510675902,40.68736624279555,50.90781927223303,53.465785788713696,44.082402948099926,52.16799304131038,59.60990992736072,50.85846820506399,27.72053222501107,27.28250522786538
1.4063415586952277,69.33787033976608,43.132275862774904,59.8849131749341,57.475064663407395,32.48627815383437,73.00955102879435,47.33535371261377,56.1975834000171,50.43700489167926,55.777139815043526,54.946168555644775,50.22995461213456,45.54573775439427,28.70532971999304
1.4102480630249365,60.50799720563465,62.414200297790856,62.61839374548754,46.94140627574334,32.60057348428212,44.524664913236855,43.38039456646313,39.05150742477751,32.845825473380316,52.735166389206235,46.92595644471961,44.77458683489651,26.776710238006533,34.18243386045023
1.4141545673546456,68.4019463717201,43.64909576248405,35.10134893396062,37.74039172674558,29.199298465540572,43.68762929556572,33.420335955187134,24.059421889561428,16.736648027126627,41.40624960985396,42.80041163956236,44.295011445674255,29.315486073371282,25.05352486249553
1.4180610716843545,38.83227976337429,39.952249381504345,30.766375630019443,34.29873389010405,20.31062451166391,27.158534172083996,25.552424153404253,26.827015913191424,9.803277906019465,33.11406780869661,39.08705346016944,32.850926292476295,22.684969176511345,29.142992559571145
1.4219675760140635,25.321154150260433,16.101704777359146,13.201396167760963,9.67354951465627,11.904822497806409,22.769956055613093,9.526307618668532,6.351729916594282,12.120378168035943,25.167260285360097,11.419136226964394,24.824998896110856,30.192113442508052,11.165805978554143
1.4258740803437724,9.1549714913192,20.96287608021131,7.026641638016485,15.822717622021841,18.582094662074173,11.478405139314155,1.0488840574766067,-9.064442613776857,-4.179866326233806,2.0984813832487337,16.679967478310612,22.850465222702088,22.966592123882684,12.155737244438004
1.4297805846734815,-2.62242594739765,6.329480233759851,-7.555871937748688,0.09366183793748384,6.936809018138017,2.420947516231417,0.6215083902080796,-13.78670655229789,-13.527022473785397,-0.8010963475101711,-4.639496905789478,18.52783872812458,24.97387525161962,7.5420055142998566
1.4336870890031905,-23.125696076664116,-14.111921873001448,-16.411660126186455,-8.33500004508658,-5.043941218958571,-7.149020647928374,-8.36070279778505,-21.41852035487706,-21.038836026765473,-10.976197815017755,-9.502976545696608,5.25402349464694,27.534538833563296,1.6044517224629011
1.4375935933328994,-34.6434536329225,-6.340796676160531,-10.98049435219687,-26.459036698937194,39.5214287399439,-9.987983551202586,-18.41079208176469,-29.335932477056794,-26.996735055293456,-14.832484064139363,-13.817765777092227,3.4845887052546898,13.615755582713398,10.43552923537305
1.4415000976626084,-43.18113229013441,-22.296132933054377,-30.188043406317835,-25.09033692099121,-4.4119666902784225,-13.630740861098749,-24.75898550228238,-43.53349706812078,-24.744503818122713,-27.34011696670323,-22.223515556505163,-5.153729075254445,16.96961599183143,5.804638328828867
1.4454066019923173,-36.125122115062744,-32.085795344893654,-23.896020690608612,-29.42903845115634,-21.757885187038728,-21.758328061719148,-35.94775476966269,-48.808457925299834,-36.44591885700456,-25.35823503354153,-35.651994062291536,-28.415359322258958,6.691466044776334,-18.09885654579803
1.4493131063220264,-49.25222192874778,-29.905742593371112,-49.03912539694295,-31.280296894303813,-16.17444063230206,-23.60626806158575,-29.477596068254243,-40.52409445028933,-38.03898566491901,-43.89076085349433,-43.71911013398716,-31.053746886709263,-12.58708763484321,-26.98723128447311
1.4532196106517352,-54.24678163117646,-31.451068657585488,-52.832772199306426,-40.754231976680366,-35.169076528385126,-38.85598610977055,-52.02124673405918,-52.04710757075476,-46.33634023031556,-36.59418921943727,-47.4070739907173,-42.10253813004756,-11.012463433512622,-26.344387311811758
1.4571261149814443,-55.41075894558589,-50.220346604942584,-62.4616469091463,-58.94029402187923,-40.998596010580975,-45.73380804690335,-58.71456093600804,-53.88944421868613,-52.98915148398401,-54.44852891885961,-48.60651455042913,-58.08755689006696,-33.27237220091392,-50.414986581185005
1.4610326193111531,-59.10741862753364,-51.50531534098985,-57.19433322916845,-61.6606191055284,-51.88453446739948,-54.53562263579117,-57.514765225975566,-59.22274284118258,-58.112613994069605,-55.749092011652984,-59.01287130196677,-61.48620657738037,-45.85655298734709,-50.25483971064726
1.4649391236408622,-59.942232318305415,-47.53406752592993,-68.5837959183735,-64.4210159576003,-68.0228041410496,-63.698282533749094,-68.45977080841257,-47.81272669013758,-58.28728839236577,-67.99503896898364,-67.57169794813007,-79.07953877274198,-52.7147967076944,-72.35619155011875
1.468845627970571,-55.50156053080881,-57.0644108807477,-77.85432300330862,-57.866656480349164,-61.19991495164696,-64.8775596540033,-61.3664067555688,-50.58033764718975,-68.83203855640207,-66.91147078041345,-66.5063293204672,-66.35989233107503,-61.10868691329098,-67.78017590451162
1.4727521323002801,-54.896839398857935,-53.334772946167256,-70.62265089586725,-57.15277940588857,-59.3371281216043,-60.107929047716254,-60.66368851360125,-52.12309049451147,-57.200677460802424,-67.97091522019495,-92.93850186747252,-73.75298457098522,-68.44801213249634,-63.97317954812368
1.476658636629989,-55.21987685942412,-57.786166029787836,-56.55694961642368,-54.81126031305479,-58.29633633947352,-59.49191504839197,-57.91225717923478,-54.76211289515578,-56.31380212629678,-56.944474089361194,-59.752562875506165,-72.53945869714664,-81.36395076425885,-57.540401081793334
1.480565140959698,-34.29577814952813,-55.913607832609515,-44.26953062626728,-43.91995004422255,-39.212966997405516,-45.36156779761299,-42.06974642982435,-35.082194684126435,-38.22674209288345,-54.88015798410463,-46.99192607024546,-58.162729785969546,-74.98388775300566,-52.16893329364947
1.484471645289407,-35.95806349288077,-32.65228415414312,-20.86504131815087,-23.846253409728416,-31.927998081816245,-30.02447069178018,-36.34649945991103,-16.55092722884228,-12.03869955778879,-36.34654478964087,-29.931420944884554,-46.06805497661845,-58.67907113423748,-21.045753499571667
1.488378149619116,-10.846793068469404,-24.949816204087327,0.06832708794333175,-14.61870609981065,-17.999008663819268,-11.76658955527694,-7.31820016765145,3.454574490717957,6.43144536703671,-25.417122578684122,-20.12121331611527,-29.975208771598034,-44.5950137226305,-8.105941636841846
1.4922846539488248,-2.2856955813889943,0.17200742527709156,16.086416291373244,11.782969556896829,3.887663515066105,10.600376794280141,12.896737882125803,27.443102127873658,30.469550605819325,8.43546953520259,7.926446885100034,-6.444011174828661,-23.63933590637059,5.204712358189726
1.4961911582785339,25.13891041993365,7.568098055772582,35.52170051601865,27.214782508147998,34.883626546825525,29.360629021212407,32.76978392695275,51.47302266924544,50.86670994303705,21.849009719758136,26.476998214356115,23.376862400046136,1.117667504478872,19.38754769891053
1.5000976626082427,33.2453608698635,19.625358782388034,46.60328610576997,46.847630366334805,44.218767677951355,53.4331641597759,46.473761244984765,58.82156773539879,63.412590952715725,44.08508890403995,47.23132411550599,39.19967390165855,17.874213564574518,43.51096980654856
1.5040041669379518,53.65207853311563,57.193505137712364,58.664867619615386,71.64841206948407,59.35901401297479,66.47097058059754,66.5851904347109,74.83378372642512,76.83531384104516,63.63715038410279,59.90158732103926,58.430917988879486,32.51625486467574,64.09880927826696
1.5079106712676609,57.70157138579634,67.43954787079282,70.91181119441639,82.52441275397757,67.45528161556489,77.9728497963918,81.33434840275109,71.07006455822669,81.17763430845169,74.42861478038472,69.29355651308114,64.57049343144382,51.89032670569576,66.64425859068086
1.5118171755973697,75.87729769055387,80.0846648871558,82.96594511635467,83.72112920905121,71.64035811092516,58.30808121640204,84.1413569867199,86.90942914415031,83.92329561572882,76.92319806396334,67.94623153562482,70.77323607915592,54.981927084809485,76.1064187773456
1.5157236799270788,68.2697536870393,88.09064611128296,134.90914761522845,74.31022079392308,80.60985754555844,78.50466450745009,76.34136709662977,74.22626135291715,74.03482748612453,85.41351424053478,71.84272311115771,73.21787192328608,60.8450845560768,63.45302145114875
1.5196301842567876,72.08721068988937,83.02290253539978,57.70670284753068,56.41543527319823,70.02762127965629,76.72313248381347,65.18564517936325,70.36578155629961,70.81448911038069,65.17578991953162,68.3893939591305,62.907407443073026,68.89251610335391,65.15394558471971
1.5235366885864967,53.129316706479656,78.23417681160582,50.10754215987981,53.059527502323405,52.571639664398596,60.82164748542757,51.87945233770988,47.13500384345511,46.22022475613935,65.40699319882407,52.68499975305011,47.940302373912786,63.246852662604724,59.963241552975475
1.5274431929162056,40.349958565957294,59.855843091489994,26.816730429462638,43.79821013310823,47.9509801207944,46.43218062010137,44.20588829158394,34.74679585297843,34.16739604577414,55.54326136288475,40.59320818165581,38.5503035497825,53.20850837913102,44.21220228063165
1.5313496972459146,24.917843562013434,45.28999293668579,27.418260628237135,27.756375804403284,41.82959738510533,28.625270559591083,23.751744274470866,9.714984676740695,13.737837044055766,35.712398948518256,27.207822372086298,28.968275594984853,50.783091236168595,35.05150543471929
1.5352562015756235,20.46774182007192,17.55348256535079,8.21599172634907,20.201255370738252,23.06051956949851,18.18350522237072,11.79317489532592,4.294677604135422,7.516382584922245,19.908658169334135,12.0207441140954,27.336844122356606,43.187996149670546,30.31575263825029
1.5391627059053326,-1.1705196524462456,5.478118697208185,-6.025933638355575,-1.9005796140647746,20.05450138699461,8.05597373257134,4.059398527215279,-12.343731968373024,-7.9874453166258785,4.066988639683324,5.671191639943381,13.656691015678813,47.57091605481645,16.477884643183852
1.5430692102350414,-13.83175204943809,-0.7598432660005005,-2.817288252858293,-10.148196525135912,8.51613588219658,-10.404476866830588,-8.827738753280116,-20.094523626724836,-6.967421551726197,-0.1921759625999766,-10.978047609691263,11.263944495444036,30.38086160459364,14.287415073479435
1.5469757145647505,-25.5608398476787,-7.7912176986983095,-20.304439380354232,-18.180399466299896,-4.026153863352485,-12.859302129912276,-18.154722981919075,-27.610409241151093,-21.954240061880682,-13.568880863796698,-10.616810608667912,-5.365150752694839,26.09756304307212,6.471710414719887
1.5508822188944593,-76.23278265517638,-17.589340159848078,-11.31473031636196,-20.072340833284155,-7.32795854719074,-19.359636152800864,-26.499195347458112,-40.74680715762484,-29.82479600890173,-15.426179766549152,-16.038720171003572,-2.3570272594550383,15.65826069577685,-8.70313960015836
1.5547887232241684,-21.68739654199222,-27.982040950006663,-7.968981128395809,-22.12768575453866,-22.385421215922523,-23.54974432134367,-18.913747409895045,-40.29725434767848,-30.056909052235568,-11.67757276701265,-19.40514483839467,-2.005540821180313,9.849189211491101,-13.38991270401041
1.5586952275538772,-20.800915104352868,-29.5356098345384,-23.533118854346114,-17.395592501727947,-26.672306985945415,-21.248971542787523,-16.15249284527549,-35.55314277682763,-31.921318342683467,-17.50084155764681,-22.27419463917121,-13.238342062972272,2.740859499742606,-27.27448962755507
1.5626017318835863,-26.96537834691443,-36.376225912239875,-28.42079045860796,-31.192410245616497,-29.41502910179695,-40.748443719065094,-36.69885259242838,-29.111353078760377,-32.443447023855626,-25.24044831692308,-31.301828729053042,-14.45889547226351,-11.381539961827006,-33.84636712656581
1.5665082362132952,-9.92747227056661,-32.381357198029605,-20.16538265469147,-26.56321202002757,-36.89779895139569,-30.56074744174828,-39.836340429993335,-22.33316834940147,-41.09316010920787,-20.778662996742472,-27.508360699991023,-33.10096079236468,-21.07738576801373,-33.9549690437966
1.5704147405430042,-10.445410276819112,-41.31795385715913,-25.189368491831424,-37.23220840734488,-44.53260262223747,-33.02984795805378,-29.559974834624327,-30.471701284420313,-36.13498672745706,-38.99157679561952,-29.657707738313697,-31.947826569928978,-38.36851971901552,-44.02510202965415
1.5743212448727133,-17.823440803174968,-38.71684878376819,-23.959112312272175,-39.10915413200066,-54.854376515019034,-40.337410419811306,-42.559832465313555,-35.31783403974253,-41.16606445707034,-32.4074740483792,-30.704158360289437,-30.959162144613767,-40.02773728058797,-50.55129908664069
1.5782277492024221,-15.0025047716411,-44.35806371419627,-27.89548528898305,-34.21310814300351,-54.677682524573235,-46.35017595608949,-33.463150101669314,-37.04370132704048,-34.46933631074297,-35.97823265701887,-36.333943039990174,-37.33405342702782,-50.246793226588395,-61.27000534254789
1.5821342535321312,-25.673357079764656,-28.09983179986829,-19.832166296206484,-32.22227116772961,-47.387385006086504,-44.61361077244147,-34.834324246655825,-21.155614674019255,-35.11840290847126,-34.4797907728005,-3.776643284030399,-36.33839856900394,-65.40846129919068,-60.05698999666416
1.58604075786184,-12.148979178633716,-39.6139712730797,-21.545728049683245,-27.33341918132902,-49.66631431869451,-33.677910732296574,-43.82646317001872,-24.714045413102927,-27.53651955151137,-40.99810961738251,-19.374127186303,-30.850581146682877,-59.01124257662698,-46.784057964493634
1.5899472621915491,-10.411940665667721,-25.722865272177714,-13.409016651845274,-24.930584849543692,-38.17946916578134,-35.268930244653184,-36.016593677942865,-20.891031791934346,-15.128575371630957,-19.199751990393093,-14.757493413389424,-27.386833383447456,-50.53558916074749,-40.384021327471636
1.593853766521258,2.6491629314660647,-34.4145385287196,-4.514652394307083,7.871386255973888,-32.63171199833133,-17.016725734070818,-17.887477029688423,-9.723335584106728,-9.328957095787588,-24.105101977885425,-3.3106494072471957,-9.558905674169257,-41.12740392872777,-38.85458999994245
1.597760270850967,9.60920556941866,-26.42328740116237,11.997860055509257,6.408817021768789,-12.228956491318502,-6.128836054335721,2.1116687747306697,-0.2570505364336588,15.160443021740571,-4.632177930770988,-1.465636510984115,-7.546806860347061,-33.89130225007201,-19.52022908561096
1.601666775180676,24.903844575338905,-5.414948346409286,23.773348047480553,21.282651204584212,0.6611613334189486,4.674495988091223,8.16803656260879,16.252016766764026,14.905852306235499,19.65184899217745,14.451007227408459,11.594016998008824,-11.731446800215126,-7.343939487871231
1.605573279510385,31.106682819051343,9.604962609348501,36.70206622077971,19.828106258557362,15.046247480436982,25.349189223768402,27.94095625704283,27.8413086878613,31.449357390037644,23.137915659878654,25.0080399743092,23.289587866107542,-24.07748161435169,13.825098912544263
1.6094797838400938,34.595035050029594,15.610464517720258,48.69891112407203,36.0265018437663,45.409313417417,34.14872805929789,33.40829248875716,33.91433357559744,42.96500775711014,37.62226404360946,32.11514613776932,37.80628027162779,23.468322905907982,33.007224323794794
1.613386288169803,36.71940155372053,26.088504722608402,36.37731263611643,40.76212430822556,52.4507162498315,38.544866704419036,40.28822550481415,49.3549159149062,45.64081224670544,46.205334939199254,38.25592489861269,51.88947376783853,34.113827110293236,43.54548825655776
1.6172927924995117,45.82617721973504,38.053834512857144,39.05439006424555,45.33878142119085,44.73494432312143,49.059364112691334,54.49375404534096,37.389583467368844,40.4439917802167,39.94317265678802,45.40912187301482,40.9939174508757,36.903410920276535,55.95853733131346
1.6211992968292208,36.14626285954816,40.12299444262194,33.82758082912134,35.101013092035394,46.323708820409514,47.310279626456655,39.56926371340859,40.459894942224935,38.1634008605052,51.24102534535949,39.76558450470161,44.54504811027777,44.78111287331421,48.89411192977843
1.6251058011589297,25.467027842547004,47.42344144542834,25.569339453518808,25.08303501529882,47.08515732711496,36.0174003790881,22.506431043349536,17.066656850212926,36.74808308109051,29.601109828910467,27.027706774229127,31.209509414070002,43.573928631549435,36.290636797151976
1.6290123054886387,14.199199171194945,35.77766726999655,15.970713750903348,9.322149758939245,32.28300536769632,29.537041552831994,19.467898128979563,21.635740931630718,4.137150017827944,27.940070324093284,17.413729071321228,26.271797244517952,34.23170715996637,31.96356071263323
1.6329188098183476,1.3765072769985025,22.83192065087023,-9.014834479770325,-11.351503135144949,17.3048359982722,11.808652502325428,6.520690367770552,0.31968074572184957,12.96480091668205,12.45751898477564,-3.131668009866007,1.8361408134902546,20.05683471423446,18.211102898948827
1.6368253141480567,-15.578601272852982,12.477376643747608,-39.55220161264782,-28.88450378344777,4.54262108458776,7.191195899716861,-7.578149512985916,-15.678820899312973,-16.524963558596564,-13.24583906513602,-11.934997452992498,-14.747714265238407,15.163073080633312,2.8328054560132676
1.6407318184777655,-37.24168427989417,-13.543036972799005,-45.68075337702144,-38.28634574869403,-3.0952119275922287,-23.33034359539955,-22.349069607134822,-38.0696939409643,-24.845465076015742,-29.41091990197446,-30.01987039963397,-28.149820860971513,3.084672773380314,-11.144954529546741
1.6446383228074746,-49.78378127113462,-25.986330705927298,-47.31271640797144,-43.00907067618567,-15.465884223885949,-24.32215550474709,-42.77092214273888,-43.438836017077804,-43.097590100420206,-26.99412108601281,-50.032920619857734,-42.59674468817264,-4.0191480165011875,-12.570111926559882
1.6485448271371836,-59.24167686893968,-31.204242431812226,-60.89642423270495,-62.08085174416291,-22.021685139957164,-50.35243340776624,-44.22519004860439,-46.612987122338545,-51.222453804998075,-54.23746734164146,-51.30468269517526,-52.64453764185892,-23.340600401630766,-22.973160224801987
1.6524513314668925,-79.81510138245025,-39.35054990301513,-67.0592799159762,-55.47134914144567,-34.11193636406768,-43.70764370276915,-51.701239935723144,-38.203554391727856,-52.30150696347757,-52.255645581043396,-51.32816832195934,-48.1657088763922,-32.0078345926635,-30.9660861657981
