timestamp,AF3,F7,F3,FC5,T7,P7,O1,O2,P8,T8,FC6,F4,F8,AF4
0.0,34.823533119508255,61.61408866442855,26.512026798205493,42.73189256055704,36.114630030968854,29.6978328802788,31.623207045001898,57.144165502941334,37.04005213040123,49.425945421997405,21.51248888455782,45.4330769717778,31.02306515636854,68.84980619076065
0.003906504329708966,61.59852685213858,100.00387233168745,78.27769162153837,70.3718397468083,70.54742038519673,68.85607573981649,72.78992925280332,88.14779474596754,71.96711021214803,76.30834153004315,64.32698113349792,71.32411409830715,65.74956311348588,105.58692659169351
0.007813008659417931,89.46121756396347,106.36265247382264,102.67716640815185,107.06026441898537,82.205948469958,96.79516664523749,87.85692376393882,98.4684483331434,100.3508017158301,89.78306565180881,93.5046840072123,99.25235905572586,78.66732759749748,92.77604283079023
0.011719512989126896,93.78004104239606,104.07139000326669,106.5883840855599,94.81147192720206,91.76916894307755,96.27356513119229,103.72228279599717,100.85342889618673,96.81994815925397,92.16668312879173,99.34999886603623,83.51741101799404,93.21312113312108,93.88968351364164
0.015626017318835863,88.59465300069951,67.85998725760079,91.27951950101607,94.1668212252378,73.57059631984609,93.71383654886807,92.34911348579176,82.17303408749198,89.1265553729598,79.30796600749663,80.45554566982327,67.96226607062475,81.28914722997399,74.74654859265085
0.01953252164854483,64.44242316841937,29.555022095154634,69.30876436341097,71.7197345760839,54.198287503558724,63.63604225768758,64.9425086115358,40.45181707566237,38.02676287112118,53.83451930554014,50.85534089752188,38.50981576095203,59.116798222188194,47.2004514602278
0.023439025978253793,34.055193651175806,-6.958138091161853,23.534055922346923,33.72817024547859,12.555379596586567,32.03077404669635,25.278286118707875,12.14428500063086,26.382771707813173,15.338529377736416,25.15372270198511,16.392271684957077,26.476790415492687,-2.478224996994334
0.02734553030796276,0.6170994438899982,-52.89555876154274,-14.795334232933355,-15.841955937984503,-19.101648929592237,-2.1957431185749687,-7.446988231369602,-20.345063138900755,-19.644459708075697,-16.78335841127707,-10.433381676095939,-17.80553035313132,-3.3491588279442337,-42.50001103365785
0.031252034637671726,-30.168952499448682,-77.11184977447547,-57.08225872266317,-41.812894883210134,-27.15435059466126,-37.977934117673016,-52.73139630489923,-52.99192887240368,-49.3543450530009,-48.374832700010074,-45.25725500125767,-41.264330497264126,-28.924438592298575,-56.416850251168185
0.03515853896738069,-49.27980398815551,-79.9479060568427,-67.90823921145105,-78.53379828804347,-45.630780368175856,-56.754604998713056,-55.66101223382299,-65.706308166873,-66.77361614282665,-61.02824266684493,-53.215334250448066,-49.04057010705008,-36.28037513401202,-67.96529731421906
0.03906504329708966,-62.568813882027975,-86.41649831186773,-88.5634412159562,-86.07072250733778,-48.973402002090374,-73.1796373617046,-60.38538285249,-72.77069826729884,-64.75382511323737,-64.85897272715142,-54.25872254768497,-41.72513229427353,-49.052665595262695,-60.50602499785952
0.042971547626798626,-56.459737617190264,-59.684674307807335,-83.01962623648993,-76.30169517352768,-41.8225311556592,-55.503116194237435,-59.536616869505515,-57.43377727348979,-52.14339142854635,-70.32918462655486,-54.88644369487986,-29.81802135564745,-40.126181012876096,-54.329334317951925
0.046878051956507585,-37.857958292049595,-32.609728082242185,-49.53645614970833,-53.44250026708706,-20.06679174705483,-37.686222100053115,-51.45856515005342,-40.43162396004716,-46.057883541219844,-60.888119387540016,-26.238428575092055,-9.902448250992439,-18.025016163353506,-34.720723475497174
0.05078455628621655,-23.42563272494415,2.528148154129614,-27.377163016291572,-26.45989804155014,-7.224693005551172,-18.935310123624006,-12.001117030562838,-18.287441273078496,-30.577347302261916,-29.995872684011072,0.39034029989790486,5.839412792855559,-11.87125567359843,-4.679631121283663
0.05469106061592552,-7.972956140094232,23.43767857073919,2.4967204166595804,-12.259993793487308,2.9399461458079426,-3.5927139304962656,7.458629804092482,-1.8842394678691479,-5.503226466626372,-12.298642666242946,12.788658386171946,12.211989347541042,-10.441645391643927,6.177879606864674
0.058597564945634485,12.40968168055177,39.621407626948766,27.848785455200392,17.853570192020094,2.8700064821566267,16.989500723826467,25.909297736517622,12.290715076196022,8.856687502591274,-2.518262685884312,27.481639112890456,16.914803038757242,0.06444819775631405,13.740301946369424
0.06250406927534345,15.746482105380084,41.52060928252584,37.52108010917454,23.44026194425518,2.984389669921285,22.750286510699976,30.031236397252055,18.46218080409041,16.49661419532703,19.31072221708363,30.395337589890147,18.86175323758411,5.5020936626300525,13.51833118225966
0.06641057360505241,18.383375834382832,27.727032883234667,40.55087122461598,2.2711414062582023,0.1719555357434955,29.692547910276406,28.619841918360354,21.000072159161334,19.45913337807862,18.095677175215815,9.555201794132998,-0.6810545978668902,6.067669835452283,12.903026915952278
0.07031707793476139,4.546405329255067,11.147221689158053,32.409895986728586,29.131712835335094,-2.9808831394128203,6.252598368382851,13.11242787405592,3.104031034325402,9.78000989505926,23.37975340282388,-0.11785712748743515,-17.089200400239793,-2.6999640000565117,19.543600548380873
0.07422358226447034,-6.092617143105326,-2.0532528760077087,17.473156409708217,16.899900133775322,-9.591325553011966,-7.960272239466308,-8.443678841768874,-5.65454549066557,9.563730776109947,26.093579351502527,-26.544167249289636,-33.25914851376692,-14.792276806436949,14.940069185179796
0.07813008659417932,-1.2913218462443607,-19.79470201637103,4.142767995315719,13.18332256946315,-20.78497393670175,-17.667325837913577,-28.26361409460054,-13.12355433579993,-9.197860955990667,29.38626347363717,-30.2556578409827,-28.866778518782905,-12.562888384248179,-1.8223076304756702
0.08203659092388828,-14.816102738185274,-25.023644052828317,5.466631295638749,-4.428011129539878,-22.01513990371033,-20.931562177511882,-33.91923281329105,-12.974103637298459,-1.197856650904543,22.904603374240203,-38.460618222498496,-32.44782142383603,-20.702893734041236,7.760978546846622
0.08594309525359725,-10.100484575890084,-10.841550820009,-5.953384472169944,-9.40750081599347,-8.258121943364257,-25.0318829630263,-18.953214217251542,-14.406368969796473,0.2092463622344396,17.412955217449976,-36.811503594451736,-26.36754260115515,-2.912707373393827,6.150762504877719
0.08984959958330621,-3.527017994540812,-8.529181351945642,-5.266980458533917,-9.180452660841294,-9.441016900602023,-2.29422671075114,-18.32967595776542,-6.820355156267704,15.673549887710337,13.672013609217762,-33.564283931129246,-16.03396991525323,-17.377705166161803,5.29612524271179
0.09375610391301517,1.4087226320089723,1.6344277572564163,-6.690343803282498,-0.28913857704117607,-2.760094471898853,-2.472553382154152,-0.3807375779098985,10.64194791931657,10.754668725687052,13.558607046899898,-6.23068218414651,4.412081807387728,5.853721017336828,17.1468830964386
0.09766260824272414,16.047909469450445,19.44746158420265,4.3862894863927995,13.29156226011236,15.725868613181925,20.694691446515513,14.90214499673149,15.5728269227921,7.710145994589584,12.93774759860952,10.42158817286562,25.607621047889314,8.216300177439908,12.928724537646548
0.1015691125724331,28.84086464101226,37.58329649547432,6.9781254617644635,16.904875706942594,24.965900828361097,40.227275103232515,34.84578127471611,20.60831728643732,12.968777969625332,12.664659873766686,44.62236973274701,6.282679319814271,21.377108079971283,14.030891726175737
0.10547561690214208,27.750367318065816,35.44451932797651,17.808645556166912,25.35050746325243,30.496856390051075,49.68150788917255,57.603646023317744,27.330676079128764,17.96791582524738,-2.92898449185219,48.40958406556348,40.5085453141237,25.473646041707056,17.75821552637352
0.10938212123185104,34.34864888658872,48.27488185002074,23.573287923900324,18.428890873553193,32.74424930908602,49.40323130051886,49.390136954407915,34.579963235942046,28.41325961047996,-6.418735930909464,64.2295901677432,45.6171561427313,36.128480978007204,15.476256335679983
0.11328862556156001,30.27983332789139,20.620466889734423,8.165402755914645,18.960329723460468,36.341363121153655,45.45611198153869,55.200778920924726,22.8137888161145,15.360058378527015,-20.906033530458046,54.668838380920384,42.26245927314413,23.86050035884585,2.7747796256370156
0.11719512989126897,24.34370640431342,13.123718629125948,8.667639946982014,13.596124120604413,35.23582639892981,32.402663298107534,46.17688780514021,17.54081792861663,2.8368826717689277,-7.194155596689855,39.42646500522855,37.12166049884183,33.679064820278334,7.652491019460412
0.12110163422097794,29.839178325409733,2.1840364484400645,-3.1331505147811303,0.006195161356234102,14.7033280942671,20.062943379174225,19.097763526332066,6.136143303605241,8.823802787094472,-1.6720938912865861,28.590984500329657,27.305533651923913,32.919834237936286,5.890287595625419
0.1250081385506869,11.11469607882066,-24.39753531176453,-11.197463609257483,-12.192353584262413,22.008519269464458,1.1914325413915163,5.888774302588894,5.995047906790775,2.8929301352947556,-2.5998127137359437,15.010852902342046,21.710657035999443,28.285512739006663,-4.7037665779657765
0.12891464288039586,2.2907231304851634,-35.86135959050058,-18.400574277557322,-17.032418589662143,14.07441883155489,-3.6381800658475516,-22.081089825014363,-10.291252153335233,-0.25543018194344214,-3.5990343927729302,-7.592305035652991,5.785520864822239,9.625517616954788,0.6614143049032721
0.13282114721010482,-10.484310237940328,-39.78352377419547,-27.834974203962954,-21.738583137122117,-1.2360866080349129,-28.521227233435145,-33.45448072800403,-23.54593847595647,-10.723174125811127,4.9709875690506635,-27.37407375840688,-4.517453258072378,4.592810164197241,-24.69325111822588
0.1367276515398138,-18.68964702468244,-47.409945366061585,-34.01003517558814,-31.97950381611499,-20.472516257490696,-34.21802361881651,-43.98347452360128,-30.251934767295133,-19.507278550383155,-3.456560632484286,-40.75421279335049,-23.340155775402454,-5.011653985663381,-16.947521383882187
0.14063415586952277,-20.52609068357642,-40.6244806293649,-31.737925345439997,-35.17591919648219,-31.582474289508973,-41.10300160891903,-49.91770596383426,-41.7560342362619,-31.175825718892092,-18.803992539989792,-49.14367755331537,-37.52898283158722,-25.886541002313052,-27.445405882612977
0.14454066019923173,-37.45019190232192,-38.474677182641386,-38.880082145480415,-35.10402577955098,-48.549717379449206,-45.52816124346848,-50.165308736527315,-40.37971637027544,-28.683907941699186,-22.616988277636437,-48.59035850219887,-53.80558367901889,-49.77284759641102,-25.733293996874394
0.1484471645289407,-51.4330468415155,-33.23692017559872,-37.36274888299086,-44.43169972078622,-50.47732162712741,-49.399763446118335,-49.995110276378085,-50.790739489426436,-47.44979939919713,-38.09939345634159,-52.874967061248526,-55.421656669386635,-56.37739960884046,-45.32952586714272
0.15235366885864968,-48.955259500870824,-26.601110762147933,-31.042994544810337,-35.46844628237085,-64.73196114742217,-52.50703056448629,-35.74837299490953,-41.34724895372362,-49.117365824058595,-54.10644366773877,-49.35726353038862,-57.297266345612094,-59.826684333188695,-47.41336759567775
0.15626017318835864,-69.40165147695254,-3.2534337651417173,-26.02570195421429,-25.869456000171073,-67.59343644290898,-45.10983211175313,-34.06319579104419,-34.22859952506712,-43.85435815741502,-50.95153629155551,-32.83775978052408,-49.1728559955297,-67.74738232729429,-40.84280727366115
0.1601666775180676,-40.070039832127186,-1.003909062080897,-6.87574661487742,-26.95999539792464,-47.871436038952,-30.277265808428773,-15.222418525519366,-21.609498849943066,-27.695078092004163,-32.97845584788106,-14.992714737397309,-46.803162896786056,-52.63295532066521,-16.450263995824834
0.16407318184777656,-34.8931634830831,21.136842916583277,11.989254244151207,-4.330797489537921,-22.385854036219413,-11.177715933351543,-1.519256562543439,-2.2655116345873085,-8.61168802734829,-17.434410306882267,-14.077796329526326,-21.65474286812818,-35.226592233187695,3.2099538769120537
0.16797968617748552,-2.958353358389248,34.652764567823155,21.453328245325743,22.546108749319323,12.851374197968632,9.376835305059696,19.480742589256963,21.224003516670244,17.556854042856514,14.838180624166414,11.201184842512406,8.507803912606928,-3.1839831975956723,33.90086810556535
0.1718861905071945,27.842600382508714,49.595562994769885,39.15971296908135,39.87875435498698,37.07898204831763,30.60150994432917,37.615917980254764,49.465609315540505,44.24881680976328,38.25031170564004,30.910663420526635,39.097671834242455,31.78295890638915,63.50370866890115
0.17579269483690346,58.601790591764804,65.47557375711347,55.62293892375787,56.171717176857506,78.03297605014902,67.01836465755846,55.746370141205674,70.46367853969633,62.68665157133276,73.20369234119313,52.15195034283689,66.93837529153755,50.44654844922221,78.76089476479
0.17969919916661242,86.703534406707,82.7309341871367,77.28905043549403,74.7921343025856,86.91643309126168,73.84290320096221,65.07991547122683,81.03627657790774,78.62724945267904,85.31673331868797,68.23802004191792,157.80247146316594,83.01663379497131,86.78936277098157
0.18360570349632138,90.37551580202297,55.99514639513764,74.79868905862145,85.17655557100333,92.42336154240265,77.4718174307831,66.47021984983408,71.36663019802373,91.55552606122804,88.35379492852772,67.77088247429471,83.2828342616306,83.55836119811974,86.03458785338726
0.18751220782603034,85.61343814327317,45.65744592990325,59.466988201273374,66.85723764507293,76.7633460698886,69.44298223714462,54.135553008235235,71.19013379213715,72.33334610993617,74.27839451505733,63.980385076804815,67.85658439321156,75.58537616749835,56.56892210642229
0.19141871215573933,61.4850719550468,12.810945076928505,32.40900542585761,51.83016799279967,55.66317022251338,50.82066811583129,45.24152750417371,41.051393679442214,55.37171653080601,39.45010100315013,47.582043486454026,50.08018349830115,65.96202651311442,25.87472152777953
0.1953252164854483,38.58974333680172,-16.91227225399349,6.00944511019261,10.60356335846035,20.78512439202102,20.588939815990482,6.241545997404632,8.522329324408556,12.20762740041061,4.021277983781709,21.704604721881555,16.147089533589977,23.755940373924794,-15.440503025472703
0.19923172081515725,-8.169503902652732,-51.35195377016585,-19.307361945065892,-13.560901694307576,-15.422052547089809,-2.5676132493681587,-15.288448021400088,-32.40936922945016,-23.27417131482519,-32.27341489310049,-9.13706080907722,-19.349143551248574,-3.7513582446753073,-48.06521327837305
0.2031382251448662,-36.09183029165378,-71.15578029199521,-58.39467405044015,-56.55441778966099,-44.38208264019568,-38.41017586054082,-30.694349851653598,-60.21774390987533,-62.822672746891975,-73.02492407911797,-36.167389312293786,-43.85209405995064,-36.41673216129191,-72.4337122206817
0.2070447294745752,-79.73211676183084,-78.16527815173049,-80.16305750413123,-90.94486547818238,-68.20387719010235,-71.77013825665762,-62.77039108865083,-88.29685080264008,-81.91158747853362,-92.78038170071844,-50.98146942718808,-60.067272838369234,-61.94481282259693,-93.12262155651507
0.21095123380428416,-79.053126718442,-78.32587896942765,-94.81499890668985,-99.66178222994952,-76.3732128399875,-70.4500860682464,-65.55586480919737,-86.73003417251822,-90.2775980087727,-100.99349085702583,-61.61070212631488,-58.150358802797385,-69.41684704977901,-85.6709262588394
0.21485773813399311,-72.82464835602669,-61.37728247819267,-83.26643022682889,-88.50892443461719,-62.67465815987597,-68.59356022928608,-69.78784279691037,-69.13774210575647,-80.795050154657,-88.965693610009,-47.41959862522829,-48.889139845448824,-66.51475439447405,-76.2314135310239
0.21876424246370207,-55.2167145753353,-46.804591347985784,-61.63670427187081,-63.715694674200954,-39.01145756192627,-46.901356253393345,-45.973661637652334,-42.650795501124165,-61.64491608361725,-60.64652150601109,-39.03681375427523,-31.09868572375438,-39.67538303760578,-40.80855742129233
0.22267074679341103,-31.391352986642836,36.84769108395529,-39.86686901776312,-27.636794024145466,-16.11948458709508,-29.308832860013023,-23.895602426843013,-14.769125977202465,-31.038998790136418,-24.673851192999518,-9.962659858943296,5.921006473918525,-15.07755423364895,-6.211080206989754
0.22657725112312002,-1.5724919830671085,25.975308751396497,10.617621711232054,0.01711568677253572,14.224868704524848,-2.117918648751024,4.4698468707647825,9.69901021391047,-0.46292070791463047,14.896737137709495,2.2305502163249034,18.476652097374316,7.798358361261038,32.517865387690556
0.23048375545282898,27.38951206580847,45.66360844202762,32.41688192926058,39.13828121572365,35.080733768337424,29.19714315358233,34.46712633004064,38.49799745362722,37.3827094395762,61.952606963027776,31.625601352340613,-34.94222847148112,28.75615756578998,45.12537446532768
0.23439025978253794,40.96486122538851,54.34575124258265,61.937939607257505,60.97089463694615,39.143765454981434,45.60587480191584,32.99746592726086,52.939550340114934,57.997223339839756,58.43981293053878,30.524255163983298,41.91093473323616,42.85652532279816,58.02012051287491
0.2382967641122469,37.99374514807834,38.313071507985526,61.48419501385936,68.05861488559809,24.70107717566659,44.798882427531886,53.192252843057474,45.6507428078484,57.960924686855954,64.73073907019977,29.143112495019256,27.77178765290198,32.77649978308819,45.2776511472979
0.2422032684419559,20.001139406031626,38.861346209116746,63.01872487888117,55.83639711489478,16.826642050770452,33.10886542892559,30.819411859086653,37.25687495080831,46.47918700726288,55.0721141961903,4.133748724182649,4.220834153826078,30.27288663386862,34.452526524500854
0.24610977277166485,16.51997124838283,1.3829442906493554,42.65147807939278,41.872944978121026,-7.9307659480406665,7.105323988229749,7.388696916191964,6.979587295444611,18.975765754949947,25.543160885307845,-9.031594029736333,-21.370857502121105,-3.8982807366528216,6.459207030034639
0.2500162771013738,-14.966639183684755,-8.279799424523897,15.535799563483462,23.820403067670767,-29.975962032514843,-17.480185484912344,-2.5835831895302945,-16.69921229304505,1.0118383212950466,14.591589713072983,-27.502650435906315,-30.099709692501342,-30.286044528566386,-6.397314801126383
0.25392278143108277,-24.93148064770171,-31.58633807710536,-6.1358406941788575,-4.162978331750791,-46.74127899084393,-22.90666201913003,-33.05012790475954,-32.29371958720981,-21.26919995375815,-11.523111063478499,-44.42889620177563,-56.60537550037501,-42.263097103153335,-22.468057641769803
0.2578292857607917,-45.05298815875586,-37.258141264078645,-18.873297009066473,-23.904425639265675,-41.07198857073592,-28.581994166825666,-38.520366466520755,-37.35064674600256,-32.371002491800134,-24.623095165131158,-51.27504246649885,-39.767514852356186,-40.30087492208282,-45.74138095137999
0.2617357900905007,-45.500176349662674,-32.64685908135459,-30.11117111518966,-37.19655402433827,-30.759513061452093,-39.42932243020911,-38.79015753475664,-27.07763877572584,-28.76220675706409,-29.91861357827902,-34.696413335781465,-41.35045279098671,-47.65639778465239,-27.634239964804824
0.26564229442020965,-15.992492644158887,-11.140169260544594,-31.925411043725482,-30.99332531783852,-12.663474226593031,-25.818639527042926,-19.76316045880874,-11.34332904467688,-19.803216377741528,-8.3860675381787,-13.934671686851765,-4.802053484983883,-21.816967984204602,-5.39209186343029
0.26954879874991866,4.501465018785965,8.028021146389685,-16.107072721737122,-16.92259425951478,16.878613914448543,0.43397296778641903,3.131642346440224,5.936743053885504,-7.852408416518072,-4.121387038277657,10.720140419713982,21.272684322363205,8.288354290392414,3.17263828805139
0.2734553030796276,26.42459645184455,40.87477999996665,1.465551696105809,15.508595394695096,53.30770821297317,27.37356223648611,26.01434279005462,30.17476728948911,19.424345557456906,6.117001532642992,48.53703817868685,56.06214282896041,37.73991400712494,44.91511373237867
0.2773618074093366,40.459383454195226,50.706755239621536,32.44661190553692,26.487502187503885,72.0060807544516,52.701212827880575,56.99224924380299,48.75058300175325,42.81084136789579,24.582571726852827,69.92740259056373,86.79023670784144,59.94161033629406,49.51078510303976
0.28126831173904554,60.61207112173173,58.60801421418931,42.46675274492963,55.208628636796774,81.79715818240696,65.32525138305881,86.08631985507148,62.13520600058141,54.853338056034005,38.75159425144701,91.65254609249885,91.94813832922283,72.42806911438095,50.64212020762481
0.2851748160687545,57.025895034534145,60.227293532449316,52.613511967295516,45.626161194962336,68.60057504136475,74.570013715174,65.2087677362772,58.63477709591934,52.495701098579566,26.253368491332555,82.00232909321349,79.88587892776191,77.35596629410927,33.914214633591236
0.28908132039846346,54.957972540999215,23.87905273441,36.0139110171688,43.962418518065995,48.20777726374571,53.97425271817243,54.56455699747265,39.580489611412595,33.59332558682608,19.563233060251225,69.63630028344028,57.349108181844336,58.46502605624453,22.783911219231648
0.2929878247281724,28.93155679947222,-1.194913661248976,22.670826936533746,16.495131790993906,22.257901320598144,24.363778684396834,28.07566499175829,13.35793739778735,4.150965415871026,-7.987563250458319,27.980192577682928,20.787631548426504,29.54931326294306,-6.230614260976555
0.2968943290578814,-1.4894340307023821,-39.65250151292586,-21.167882019953275,-9.087614861494155,-6.542335024466061,-6.2630597642295,-9.78284636265106,-32.53303255301594,-12.254432763102024,-14.418817150793284,-3.94793361527997,-25.35094639981546,-4.4259294330876955,-35.383260741005294
0.30080083338759034,-31.787120422105875,-66.62076992306544,-45.69217670566736,-32.717095174019846,-43.3442056581782,-36.31818168546849,-53.488694501248375,-47.301018635009065,-33.68631936468586,-39.450993019958084,-41.572513782231056,-48.36215355021278,-30.67648136644256,-54.025261135585076
0.30470733771729935,-58.09900200518139,-92.85850315045744,-70.19256811589344,-61.43901899190055,-66.86258816649585,-70.30317936345521,-81.37781556335871,-68.26470304435323,-64.3271356584685,-66.99805404465684,-80.61406387804874,-72.91302001493808,-61.76370317928519,-70.179149245271
0.3086138420470083,-68.55835916788223,-90.01406098895583,-70.23856077858561,-73.3852618810656,-79.62822323610197,-88.57633426581378,-91.31248461229654,-83.10690406497176,-76.70590839528403,-52.57931526157483,-98.68702212299691,-87.5980194117446,-81.37537275632718,-66.43329387631488
0.3125203463767173,-69.92887899491673,-79.26793481162696,-69.98535181089531,-73.46065864790403,-70.86512628756576,-82.06266448136375,-92.74585470945549,-61.23696908007811,-71.28676761332747,-52.46423843671113,-94.71095066746297,-78.57998847868603,-79.86649572691675,-59.94574166225595
0.31642685070642623,-71.53681053467146,-45.71305885465735,-62.71441494513662,-70.1554385059117,-69.13695362438325,-76.38938943427993,-83.23519955795337,-59.904901108835034,-61.722120455717814,-43.3758241004749,-71.2053275587497,-63.97558131495395,-62.901948177686954,-35.71776897119579
0.3203333550361352,-45.40564663269392,-8.497621613944567,-33.23760963811207,-35.82050090710426,-39.67157592156839,-45.27572518969181,-48.867940129638015,-35.702175145303706,-28.736032073739317,-26.05112905126076,-46.74306827765075,-49.277927814366855,-48.186133425586554,-13.87192503224763
0.32423985936584415,-24.1310270806596,25.642221597946993,1.9008379334773746,-6.639892774065894,-18.830921368394968,-13.093294090072852,-12.472971818801408,-6.564137926955421,-4.6527160857932675,-1.2779990577703075,-7.20244327529732,-13.35168112798419,-27.673758326754886,0.02202879144064518
0.3281463636955531,-6.963383433443765,58.2761180297338,23.878918706718558,31.281482448074687,3.5414010538392637,11.535582058441506,26.951016584163497,28.162964384476773,25.32195460106523,4.991258110490131,23.03035115513481,6.779280655745216,3.521171328081998,21.101541952692433
0.33205286802526207,24.466470740570934,66.44144093954377,48.73965386583933,54.96832638369716,22.744905563304066,36.80383476265622,59.465184448385,44.41178649623033,41.67950520409493,37.07380350588861,43.928997346836454,19.907727544062617,21.67108122552912,39.09318238536115
0.33595937235497103,42.619117455946004,75.37937750539021,66.03100452002683,69.42276129078051,30.742738073169853,58.89669225343583,65.00263972160101,64.82248980386893,49.373605243096975,44.89586592457007,68.11228642488264,45.93680496720017,27.668099284228745,50.80178193452633
0.33986587668468005,40.59352787685405,73.44577317865605,67.55293140932525,79.60524274627412,44.03208979433641,68.65424054172736,72.74172616490527,66.87083233218343,61.38263598232197,53.273830277590605,66.71437171896534,52.81011744997797,44.6023208102945,62.24300361053901
0.343772381014389,54.141570442291055,56.58982190332017,69.42021220453312,53.69139042594054,45.02017870861259,65.79332592653077,69.34824076419608,63.623817772690145,67.93328219473203,57.93483573291887,51.05628863758186,47.850236268840916,55.76940300024869,42.52542973289036
0.34767888534409797,66.43533171392053,43.85681486458939,44.894980405734366,59.32469232977443,50.20204869932336,61.28370188723918,57.433734541509196,41.298362996701925,55.14734062647974,61.995856030968994,47.81267528653785,36.85967474628515,43.75739867380253,42.82218954398229
0.3515853896738069,45.42991810494904,12.1823181915809,26.07734037025377,37.9855946409593,44.544731273983174,40.865800248379955,37.826580187081035,38.51039128650335,93.81699966501318,47.59458742932204,33.29136938131455,36.694753758330336,43.55776656255064,38.838177825041846
0.3554918940035159,37.08598865658451,-10.523862711477609,15.822025507158633,20.47313295351219,34.145814464371966,27.482917748299453,22.573335728050957,27.29321658588057,21.314024234677206,30.035066678001176,16.667286415398216,23.469169312048294,33.462288866638964,17.37306877761837
0.35939839833322484,14.433384624815423,-24.170688142142033,-9.541302738093439,-2.4825161408369842,28.940593315141896,8.533792300461114,1.5387146074301041,-5.350178724522202,18.7055056206187,12.885227722902005,7.661919250676103,26.2649409848975,28.201907178646998,9.390526558055992
0.3633049026629338,9.335346480937481,-26.417662343978378,-23.62462656013897,-8.259847609781001,19.315804269053267,-2.499126176460937,-15.397730600807499,-6.366806930903306,-3.7350294113182607,-4.057522508446919,-7.526622350348231,9.575897359529879,11.632577771584792,-11.0393369906534
0.36721140699264276,-3.947173573897622,-44.65761306145849,-39.72691624093197,-40.10842006724924,-0.4860312395375477,-26.311288958732632,-29.997577720554872,-19.330726365445226,-28.157588137399454,-15.356747532405933,-5.8626593708168055,1.4537131076065197,9.63395886909748,-31.083815737722702
0.3711179113223517,-12.574076856838566,-40.50243789247246,-39.66314484820537,-41.054949368730526,-18.588296138035442,-20.37538015556611,-32.52001308903039,-32.75078859796511,-33.76431004787348,-39.76143270005649,-15.01372693549271,-7.9472996829834255,-19.833657854005548,-50.799341247805465
0.3750244156520607,-34.23848471566328,-39.80705690142975,-43.88664729151385,-44.50499372831561,-39.78469698242868,-32.878870786825935,-24.01534077407675,-47.065772222039094,-48.59443312494281,-54.540761391796586,-10.459447621482141,-19.21562455937321,-22.714578227568282,-62.469099057741516
0.3789309199817697,-39.216587662978796,-34.27849838520724,-43.44365654754185,-43.66345572709787,-34.67179992064108,-36.99653015172682,-34.97513555299152,-52.65196019424168,-51.70413097307778,-71.67534835680775,-10.666638195778894,-13.83388272470799,-38.89305846685782,-60.05608312290644
0.38283742431147866,-48.13529917776925,-28.283129593667315,-43.95048756187571,-51.582440197920825,-47.14888163932406,-33.169454857693104,-21.415542676385794,-46.580727432928846,-51.606025343386136,-66.6083643292156,-5.717360756297599,-31.47493040379482,-46.90074651258088,-56.55266489339416
0.3867439286411876,-53.04146953853724,-17.99040020428172,-30.682290947987124,-43.45546720698341,-38.64493793787479,-30.019238670891934,-25.643521333856025,-40.03605261715206,-56.25485045343683,-69.88896194955753,-28.825276275426575,-24.23140793986189,-50.62550192183808,-48.67846069844135
0.3906504329708966,-41.64816875972985,-13.072005999605015,-22.631259114164124,-37.17194380965775,-31.17655903477305,-26.118902553961544,-19.986036722490006,-31.452411984911997,-39.9734186524236,-46.46148506969732,-7.964534120027247,-25.078496718377806,-36.77784100531387,-23.85960340008345
0.39455693730060554,-34.25653908410787,-7.359803675845825,-14.711088517436181,-22.3274996429019,-25.533935795908356,-26.727031898056783,-10.620835751852308,-15.577324440724311,-31.497614565278425,-16.788425497932693,-15.859343028554457,-12.905402380200357,-17.451334754523828,-7.342530276155419
0.3984634416303145,-14.682492279786068,1.8998739573666308,3.8603639801967553,-0.25532153910001654,-3.409336324427091,-8.872244320029669,-13.043690376496125,27.526564056973818,-7.818047442430087,14.422269677615878,-13.551411393231726,-3.8571043978071686,-7.096023671719596,14.127540142416288
0.40236994596002346,3.9245219636011432,8.196762257204368,19.97995390548205,13.947446956565514,7.560522248187171,4.545473762492458,2.7406281179015535,15.121263184487727,17.548348153842156,41.19735596568641,-12.453527979661217,-1.4497860093695696,7.313651074889547,38.13815337367847
0.4062764502897324,23.37467595644717,26.586505760831486,35.893336862687114,35.384231661777264,17.622241558381166,17.49933826385595,0.06386738571265127,23.028025342530306,44.35238203584221,66.53920472331977,-8.340501524462239,11.841365809110876,24.592797767996434,55.09989348360607
0.4101829546194414,33.770937996476455,39.423556141565676,39.76207556940308,49.41274029800738,22.166294934720753,32.058757012383964,13.03985282312221,29.140018269939464,50.25906171374381,61.03016913190891,-9.86507019845178,9.369024208565385,24.63318214692245,55.7093939608936
0.4140894589491504,32.8720041485914,18.015298644837582,44.17230633691339,43.35017899178767,26.24592403469206,21.177152616963347,12.760039084503003,24.348759322114837,42.1053038120227,54.38170040019318,-2.7577506203455915,6.590223808063373,26.90118305908203,38.58670844500931
0.41799596327885935,27.935713010989538,24.657372269526793,46.23883657509173,40.02112307579861,3.0473044521686132,13.08418632362475,16.563527961286486,22.45763420756058,37.604064665754485,37.29315699274565,1.3093738441160454,2.9108626943527254,15.108635026391333,28.822690089823
0.4219024676085683,16.656793543765247,19.20027924431789,17.648272131910318,25.969976121664807,-11.537534724749136,9.866349955266397,10.055245916394197,3.486000098287793,26.93176541188539,26.09711092038267,-1.5857607957772317,-12.036724045558742,2.328214961970164,4.840812597726359
0.42580897193827727,-0.8359297548424092,-4.037739629881867,4.103144151219869,36.36831287336547,-10.783440694512148,7.04305242035036,7.068040693964104,-5.492416326074959,0.8048655132292348,-2.776343181578089,-5.692403710520486,-18.60895069058229,-11.334124311481341,-10.503646914225323
0.42971547626798623,-12.588778504226873,-3.491310429698431,-7.872346142156234,-4.070170977769075,-18.60877979712527,-13.731122319463323,-5.406188266922895,-11.427595550743618,-11.352188916089654,-32.53001334957245,7.767245699880913,-24.505952132567845,-26.456985755307905,-26.77365492257301
0.4336219805976952,-27.796732120555482,-1.3644954116611796,-22.766890034064847,-15.938472978613909,-22.820675410901437,-4.887731894882181,5.622078048636569,-18.099094755120632,-21.40699231725336,-35.53023051562955,-2.261632002493992,-16.272237015981677,-28.66671506494358,-32.65701398645234
0.43752848492740415,-18.88751709280473,-0.1569378335978442,-27.5479342789036,-22.94629259345406,-13.570140193887134,-2.281855004529837,3.72035030000793,-13.564259280873888,-17.46949571664092,-47.159733981206685,15.952915396771377,-3.730298124219991,-8.395945318435114,-16.730709663098914
0.4414349892571131,-7.733380902375331,-8.86836725014929,-16.297554332438096,-16.623623125336483,8.87810721526543,-0.5987842871153202,9.128307388787338,4.96875697166722,-16.70094390369087,-29.403971661520792,24.729760092824012,21.09570029814912,3.0175121938778777,-3.1201614534319364
0.44534149358682207,11.851426454158393,21.49648494075258,0.5765059903753489,-5.495137654102573,40.20830807072901,26.922127449793027,21.808694818810476,23.208246038014742,7.240872655683534,-4.6673930319384365,40.955802610519925,44.29613550177814,21.0575281505392,17.26891168900476
0.4492479979165311,34.210958143359676,20.213165792176966,2.8462391886200233,8.229976409579807,58.548870353652525,32.16090740746013,34.0979565997001,44.561528018410954,27.2964580804097,8.389051756331032,50.94053449885603,51.57218641890405,44.395279002321736,41.71086276477392
0.45315450224624004,54.73648824450652,20.166913199516717,27.895073553417014,28.026387225044857,67.21425497202989,45.198893689631426,40.33097097786246,42.63019514159167,33.32683981832574,36.29886423125035,53.935730640713025,73.3388726859506,58.7655854962713,46.239766181577465
0.457061006575949,54.928319335458184,35.66199321445711,28.75431273988244,41.22903305525138,55.97115644143034,39.21346539972909,36.468727700669184,48.30285678198931,44.59068892806778,36.60159719909641,53.58081748846782,67.6678698366888,66.13059779786326,50.31394487248243
0.46096751090565796,47.117889766628466,16.81964273987588,24.65825679495837,31.324360452100475,51.644976329983436,37.814477736594064,37.66900563738635,35.13976342291299,44.33959643189692,36.69542445824201,42.83430487479412,43.3952308732541,41.47409956723817,28.47451504284159
0.4648740152353669,19.4278258334122,-6.048934783661062,11.15078832959623,17.117218151948265,20.789914811252263,24.331265109528033,11.641403123803665,7.400058033898237,16.325361609834296,17.447812091906055,13.104823628740629,10.251048151123829,30.85874509736123,7.074062262798369
0.4687805195650759,1.275547408025072,-34.57293946355004,-13.67692858799822,-4.774189429358693,-17.766569938474067,-15.658253003585518,-21.974774099451054,-21.94532457262323,-10.651481979379506,-13.205245827750174,-15.727635860257664,-23.27338997644373,-12.23870470807335,-30.31829127259884
0.47268702389478484,-38.278178340533195,-61.384237225570054,-35.647882001428485,-39.111444769339876,-58.2929865669571,-33.58254063732065,-39.111751536737295,-55.150331513919134,-39.78008791620583,-32.086396090414055,-49.67085437773189,-61.768802452500275,-48.900650216173844,-56.33115934515429
0.4765935282244938,-61.57588986972261,-77.40829798753231,-60.336127552229954,-61.757354292360695,-80.85311986342411,-63.478101028286694,-71.05576698148985,-81.07423336709304,-69.6548510117834,-65.15395915447606,-67.51227378684179,-88.49865327785885,-77.00862236526343,-68.75707322359006
0.48050003255420276,-84.2831047254723,-82.08816547697437,-74.82715210185567,-72.61858242318235,-101.47233756925667,-85.22635402404683,-91.65410493721801,-88.37047293030271,-81.94860817210764,-78.7581764378511,-118.9967595273725,-97.12152325308983,-95.40042064876071,-89.37683981469712
0.4844065368839118,-99.2599810763877,-63.990105464956365,-71.37866179878316,-80.67065758306946,-93.6070741577589,-89.52774877213749,-87.23261012741439,-86.05780691795674,-93.09971013623651,-75.71386972505634,-89.17993281494319,-101.28614544538117,-100.41312584113322,-76.7486820929131
0.48831304121362074,-82.57674032939948,-42.55204536343908,-52.41290304406618,-58.96226474732167,-72.33485013890413,-77.03020765035672,-76.33693362291949,-64.87930429923448,-72.58279669134966,-60.46269786186647,-80.61412693137382,-72.26311676268429,-88.44097887387181,-53.82576758289193
0.4922195455433297,-60.515011234221724,-9.288649228239182,-37.55448385634193,-35.208552450815255,-44.21163317655164,-54.260227861476565,-51.80360927546866,-30.135200996712495,-36.737094130906854,-29.99949618809008,-46.656578755507454,-51.65292135070155,-51.98558255596637,-18.200474524359784
0.49612604987303865,-18.484057141670093,38.262152059654554,2.0354282355290385,-2.243545607726067,-4.302065622281425,-17.375870509958524,-16.479878545196854,12.468969173463835,-0.000116190006045791,8.735874759842952,-13.70768555477315,3.4392100579743183,-16.84504004919267,28.203792702307922
0.5000325542027476,23.91752327645249,61.38034914277849,44.2148857607284,39.22598057161971,34.17796100702532,33.40550778473621,33.35354502277682,60.4644427161106,37.017815491877585,41.510677876042735,30.979922618890125,30.188976902128495,33.52080249176512,62.52291766742321
0.5039390585324566,65.25196887209107,97.39402874526114,74.7639052500562,68.62571032865625,61.032055744481845,62.72822927404179,70.76092939961637,87.17844756066023,76.67380343953829,85.1347967759683,74.59226329649474,78.71267658371278,67.24170199792081,101.20069763199776
0.5078455628621655,89.37197919201378,100.87125338352128,95.99595386695192,100.50659087186952,83.42713116300752,93.06380499615285,98.34580215312779,98.72638723717621,96.61191754190989,95.61470824245252,90.25771064954765,95.96217753092348,82.46190245465137,91.89169753066443
0.5117520671918745,102.89234814556846,106.27826464516566,102.23674939727893,104.05416480937039,79.82088564166133,102.66114266257993,92.89345864982614,95.96748761599159,99.41027053093622,94.01655608256819,98.48389873444324,80.07480582413007,94.01219149208906,92.90046878580952
0.5156585715215835,93.54602179519115,72.72166997357016,90.01729514772786,79.63026404705899,69.70856789149161,93.12176591527952,86.62267481319284,87.88229226028179,82.3010280150906,77.595161014624,84.47389008068556,74.66397944624127,84.04176818133561,75.72065483751423
0.5195650758512924,62.546794047887104,28.109959459328355,58.498360159765646,66.66375010072758,49.68012395922643,57.5109354569805,74.98910591170245,45.60864127394851,55.83917516148726,46.7143044653773,51.38684817109555,51.82884789326275,56.950792835770784,31.01573640584768
0.5234715801810014,27.832782937859037,-0.3435154117191388,17.063706077129325,27.397943521183958,24.60264802834046,33.349732065290155,26.7587447566824,3.5566691430240445,8.063064102280801,21.57879025860221,17.23732264043865,15.369635859345792,28.975028019677133,-5.85447969699281
0.5273780845107103,-5.034836666406446,-50.119464648057274,-9.472652615011334,-18.57817150080692,-11.778140685486685,-3.6381470970049126,-21.53036290010483,-29.03809245279094,-15.140867944001585,-21.86983058053063,-15.872036107699596,-20.599235868527018,-4.358922995024133,-32.69660086777722
0.5312845888404193,-27.78990370938903,-72.95276231205662,-67.01436383312583,-47.16099091269429,-33.04081755587503,-38.47214105834044,-43.179676390936386,-57.845413338817686,-50.31577165700399,-46.898469939843025,-45.46135860763132,-42.25857423456971,-28.355351902327374,-63.56239766038267
0.5351910931701283,-46.83709427753437,-91.50386814802397,-77.60286448675004,-68.06531912246267,-46.63799786122472,-61.539348699728016,-69.1699570115346,-61.55594073847315,-61.59573757220745,-65.54828003597883,-54.412952345030554,-38.37455334607047,-54.22813870994807,-68.88675162535759
0.5390975974998373,-57.89737694211358,-79.17267452617587,-81.71711998472203,-77.3291819171604,-43.78566790660502,-67.22533480910057,-68.76902721965673,-67.23585322382938,-75.11705011040395,-72.18421410025498,-57.82621214699503,-43.573210926536674,-42.783912186119416,-65.23869544017754
0.5430041018295463,-49.82393206595325,-62.220810378634795,-76.47410374771633,-68.51324136602462,-46.345057685859274,-59.86006704675376,-54.23300735144796,-59.77806576851633,-58.76346636328251,-65.28122524536559,-45.890539381387896,-26.500787239574308,-42.712333667001026,-53.6245839525615
0.5469106061592552,-40.32449072362788,-26.19593165622519,-58.56443366923615,-52.94219158165585,-30.570720742555782,-39.126012679593984,-28.315267994368497,-48.94749375277877,-38.800302180031764,-42.85329436593745,-28.370051198349326,-16.621443216276006,-29.063350335504204,-28.176610947230834
0.5508171104889642,-18.0169988358739,-2.410843963631011,-23.46910705115428,-33.44141383755876,-16.40623005925797,-24.088524717760475,-15.25810537856596,-5.12950477682079,-27.14003626243731,-35.607358438473526,-0.9021381422330954,-1.9550136339410953,-12.112798220840592,-9.64657883173999
0.5547236148186732,2.0670972980541418,12.698888430547521,-2.9719895496517084,-4.2496320067050775,0.519295604686393,-1.198804252208221,8.111091219070232,-9.942417507525327,-2.1893234258895573,-12.066068627657835,17.938219455314687,12.70863967042142,6.160450584398399,4.312325339723282
0.5586301191483821,4.188000724700923,40.372740481050435,23.98121103078378,21.84089288897163,7.756652636545655,5.668449676014333,28.62566140497739,11.370691820387094,14.724007990231389,0.09913472412981794,24.09042539425668,8.131662105579503,5.762068020964492,11.786679872569774
0.5625366234780911,11.601536573491995,39.41036965022779,31.99927859762117,26.366521647260527,8.286585253921405,24.970893819344646,18.315949386972925,15.704563752761004,11.897461298094097,14.68275310116752,24.843579419325234,7.9387423883662525,5.91987088976471,6.211401965573547
0.5664431278078,13.469144291767321,30.508590950823077,37.1598814886819,31.34002089319179,7.797222421783914,23.662077631716997,34.174449470102125,28.34898516301667,8.97485972352461,19.71499372269155,6.094955493569353,-2.04653493894369,-4.938729100576999,12.661515946189805
0.570349632137509,10.570269664570834,13.684902577649748,30.157600359401528,26.134192004449158,-9.674337819578492,8.022534522715803,8.536153594324196,9.670680378823077,20.47422238244546,25.57090492910557,-7.137662132855038,-18.268865591441777,-5.584086037986419,13.645275288517697
0.574256136467218,-4.748281009740131,-1.1412897788942111,23.010267428446248,18.190116645290573,-18.92761110536552,-6.289440839299816,-11.233455012646012,-1.1208074859835124,9.309836363190763,27.211263289211207,-14.11705665943511,-26.954325181459026,-16.48009464969217,-22.350716670087138
0.5781626407969269,-3.9209438118566258,-12.294288226645033,7.327355899490141,16.073957852985227,-20.73420546270536,-14.665325796360891,-32.477689701171315,-1.6990797765069914,10.697688312402803,21.917825364062754,-40.32390206283444,-41.12400060223905,-19.17628992217805,7.626731329096657
0.5820691451266359,-14.137019612112223,-13.676610834780295,3.5219073357316955,0.3024935604416974,-18.29285486526497,-23.158643254416912,-33.13275913053664,-1.8801243494917959,5.680676252363348,28.056428597156682,-45.03334438022293,-31.600206463288337,-14.741124581971352,7.842485840540757
0.5859756494563448,-10.299128385735889,-19.781206276242713,-0.47457028281795033,-6.541087778615195,-12.429978392057588,-23.74746855537237,-33.90572043706975,-16.732121095500464,-3.1011969666089074,22.971706955134145,-35.43389562806986,-19.981487771770894,-6.62696351615099,9.44231069071502
0.5898821537860538,-17.814070138514143,-0.09468703249297139,-0.34509045444294095,-8.867678338944513,-1.0043477982852487,-14.345209154568295,-24.035887422151873,8.436249127440323,0.23862346939124457,20.31067856729757,-21.182360617285788,-12.914495485716097,-3.542167231330709,23.349612537036464
0.5937886581157628,10.007697566322792,13.913241905200847,1.5067417871080042,8.879951048507797,1.1109120489281654,-0.30870220848851426,-9.558814938708698,6.886058628790377,12.009021925778264,13.068690685219208,-10.054976297208713,7.310716094619133,-2.129969762752501,21.08840185164172
0.5976951624454717,18.374112281429877,19.681242567238954,12.289112128987515,18.612737367043742,17.693328063348346,15.68370368122969,29.14013150435087,29.45887945515586,23.472868555079824,14.993766603457146,6.896802911965086,17.455301981014717,15.835029461141131,18.751496393430912
0.6016016667751807,20.006915564617806,35.28062445777936,21.607184965827326,21.05828972948831,28.578395188696415,33.572367257487635,51.166090929394194,32.2886799530151,20.117950145088315,2.2844019378546814,45.441079357722245,33.72684157120956,24.15270967751465,16.63259960575774
0.6055081711048896,42.823274518934724,45.00509187039637,23.560560978768315,31.113765943735686,32.81851997233625,41.260800231768656,56.66850212626478,27.57730710891663,22.933915134762806,-13.601793147180599,55.60704317658743,29.300072589300584,27.51176701236304,12.959853810824299
0.6094146754345987,37.61695055936164,40.07678476442813,18.65495343519388,24.98372849848289,27.9425164709189,46.42131100594927,53.02501623877605,31.06663241452791,19.038022659492242,0.6102728535793815,66.5531065750188,50.02571554703323,35.9937362515511,14.19349282639179
0.6133211797643077,27.802198716012498,26.980547844090562,21.89424300014476,17.91483749101036,22.544899587434575,39.60850238761521,48.10169767933944,15.934155535662919,10.26840609750039,-18.38137247071173,66.15748260845764,53.455610935573816,30.964644041699806,2.6976637166504647
0.6172276840940166,16.418443845464765,9.362051188082827,12.719824912052065,9.123641831120867,31.08285573533555,27.161689378346246,36.56977903080219,16.743002742212475,2.2595851791480683,-10.17609742976749,53.15853524452199,40.2190121233455,27.60607529465052,3.070794601595675
0.6211341884237256,28.233280055126745,-8.74226047432361,5.627579308239242,0.8203300847287099,16.82570409455144,18.051439840887607,22.09030743018818,6.573530357766118,11.611786043501453,-5.300299211450439,26.221600339775165,29.413021521965767,24.73543279743612,-1.4238700802240465
0.6250406927534345,11.623047944275537,-29.79712352919541,-10.023544723884259,-10.567047277202082,12.234751904097106,2.31235540193469,13.255844373959363,-7.325082284318169,1.8102293247612624,-4.488165523683286,8.170333397154174,22.080544156554957,23.86664261410226,1.9024093282188996
0.6289471970831435,-2.630382410819572,-25.39153297861303,-21.733162649289177,-21.51296094308391,12.521329694110317,-5.669863402727827,-23.12373601393776,-7.744814817918517,-0.1320871298423576,-2.060162854184667,-12.63511636932065,10.460959745342809,9.133169516796634,-3.454138955698426
0.6328537014128525,0.02504744260208014,-43.98980363694199,-19.10256252065767,-20.58150950336571,2.7608577044229694,-22.411826254636473,-25.993375839682876,-17.736465576139604,-9.787493534136964,-8.861124810186002,-31.610067070877385,-5.45059281048727,-5.717327815005752,-5.280000319610666
0.6367602057425614,-13.793310259711983,-41.89446609785857,-29.499005285321914,-22.262306301473483,-24.952277415569316,-38.0863961349068,-45.36670598139957,-27.724263758609556,-23.791796339847956,-3.1830541049998544,-42.845076689166966,-39.85469195533324,-12.587461811572561,-27.829768507254876
0.6406667100722704,-21.82433357791588,-52.143802373485656,-35.839253878909524,-38.661907303790564,-39.889039681911086,-53.540946348751724,-46.06174979212968,-37.59458825453666,-40.90701531428235,-12.153815636773157,-48.910497251210494,-40.362003677135995,-25.48721521646865,-35.30631301821463
0.6445732144019793,-40.55516235532909,-43.15995590011824,-30.67904347947498,-32.58578484283434,-49.09407540552172,-47.667093152957456,-54.523034443922654,-41.262378051063386,-25.412466968130587,-18.886064969362362,-53.31085140777806,-52.915955528395955,-41.063981542927806,-45.019648803483435
0.6484797187316883,-50.381321042550454,-23.715373651762235,-37.73853029566544,-26.56495104111202,-57.658257576222404,-57.41015658616707,-55.74840922451704,-40.849158117360254,-46.43150666313156,-37.70155312027624,-53.10799927166033,-64.11168526026054,-49.18151867280926,-47.222133332856984
0.6523862230613973,-61.49593916858441,-22.589782699967863,-29.1563479355531,-39.066682906759546,-70.96433803288821,-47.17023399647704,-42.69344776638013,-56.76912576650228,-43.18330528344299,-41.64451286966789,-47.697186035949045,-52.36716589244191,-68.1241687576173,-44.893573325431525
0.6562927273911062,-64.37876179471291,-13.592106998732916,-26.458162570349717,-30.568053250142327,-59.547087307939485,-41.64889094726769,-34.80379215424887,-38.31138881483612,-47.06804950979279,-40.4914369528283,-34.65534013209013,-49.703305809428585,-73.13662591072489,-34.13362023403999
0.6601992317208152,-45.58571476297932,4.462420549119113,-4.215052863364493,-21.23485340172375,-52.862566847674834,-27.928494222227666,-10.56781855788821,-30.555530724358842,-36.969384780167864,-28.881113190007667,-25.33434846615035,-39.866671511838774,-55.18188341078844,-25.050414836988832
0.6641057360505241,-32.900256126020146,32.79623138088985,8.937161152352651,-7.418128556128526,-24.166188729871784,-10.371672096154082,2.1185791335982262,-6.188060359778402,-16.14105587623375,-16.409456446344272,-6.296001898123611,-21.797736016070665,-31.697526114823408,8.801609383324646
0.6680122403802331,-6.821768247392572,47.83788181773718,30.08744500156933,12.88444489393363,4.404272840548181,5.330055643679584,23.890570987127028,27.851368080015803,17.81837259013706,13.82514758738767,23.124743361141746,6.913338509295256,-2.562278659807791,30.295522394088618
0.6719187447099421,26.15238953983316,53.31156529360805,49.756948631850165,43.68831501743233,39.121327175993265,25.211098709213452,44.428871504285674,45.992191429381116,48.16453102984638,48.95597170149376,36.66670443790993,35.926143579000254,37.21889894046021,59.00676580229311
0.675825249039651,63.09529531233385,75.29704604896182,71.27329308854502,61.859426088626456,68.96401237411655,62.17530550751106,59.58621913638579,64.67849608473271,68.51698146260493,66.2314458073379,49.202295632386814,64.33276769574395,64.96441046225209,82.89227163687406
0.6797317533693601,81.41526059986374,66.82830101043776,67.35668926499991,67.28538933885768,85.11904786630608,69.65204240002836,66.55158939966975,84.87165655592953,86.62599593201679,91.5655532116775,53.12005035245786,81.99138732862491,76.85041500440776,93.55527610277306
0.683638257699069,102.64452543403593,61.8711245498619,71.4722823668323,72.98421376858488,91.78170529167268,80.03204594075973,56.97438780969374,74.74142790062,88.90215232117505,88.50001955685867,71.03166141597659,75.90648639610811,99.82003425856546,79.99274174925472
0.687544762028778,84.41990747224568,48.29751152115547,64.62711979928882,72.68450539237237,77.32093169117098,75.65833652442929,60.30754480727785,75.50982802402321,69.68883478780768,72.29462845912222,53.84758166759419,67.3862476914885,79.08153217730357,64.81626684938595
0.691451266358487,66.04832042286472,19.503618155746548,34.37929333694161,49.402159843308155,58.40650018881283,55.76311555324439,39.07084725372855,35.82711618349548,42.99954623346808,43.7545722268102,39.404708611469005,45.59623450008761,66.85623042932272,29.297891986519865
0.6953577706881959,41.40647737490717,-17.962130364691536,-0.3982492348508213,23.36771129701915,19.551167227614126,18.443382279552942,11.970670565026492,3.3612213631302823,16.452380547927838,3.636369048150079,17.593166715443967,11.436739715018629,36.32780678394176,-18.8650821215796
0.6992642750179049,-6.951659746604546,-47.608859994045645,-30.241075291260685,-25.410711472997846,-19.17646635530744,-14.944193940443487,-14.152715254051003,-31.57879573419724,-22.06247422665716,-45.534368880776775,-1.9229214536851371,-28.715412717327347,-7.048266902629148,-41.43215876496186
0.7031707793476139,-47.13527160025902,-62.97441892819808,-60.56935908540977,-58.66205658488161,-43.24289947903594,-42.78619982982582,-49.66788226911487,-54.849100776998085,-61.967328938903584,-68.08150182510421,-25.570194314821812,-44.5102451756936,-36.55750544787473,-75.19697040779067
0.7070772836773228,-67.6976996752382,-76.53734880047975,-85.65483061250154,-86.55695847388442,-65.0915683744871,-68.3601078848287,-58.74370167249032,-81.71556680022063,-82.65599481969059,-86.79966815454316,-50.16620106469426,-58.54683716062101,-69.19922341907768,-91.96841329668393
0.7109837880070318,-83.90915995239739,-73.7028760982206,-87.13563916372766,-89.07394563632172,-76.48256140407787,-72.81540514623556,-66.39779780833283,-88.54746595609308,-99.62107564958184,-103.85235695988464,-60.83665966866314,-59.80445489493017,-75.6789780081915,-88.70469334349742
0.7148902923367407,-82.34022210011507,-58.609157841596605,-98.70885710154802,-101.02936652103183,-53.331821119253256,-78.90941763890302,-71.77702402792953,-67.52057701102939,-74.5311720488626,-87.01292451439322,-48.85787793350226,-53.68811229305319,-69.9881687938675,-63.78787697441526
0.7187967966664497,-55.1205551369566,-92.94213534808891,-63.99978344950704,-69.84362519538135,-37.89739767727248,-56.04302258989395,-50.195810622950795,-45.336881142211745,-53.18010512641594,-60.759607165849026,-36.768945511835625,-40.36033957308652,-45.71352798571201,-44.87380944482172
0.7227033009961586,-40.85467352733935,-7.698369513101192,-28.079117763603836,-28.279545285213377,-16.455468671592154,-25.9015831512322,-15.732677482206014,-17.632760012340597,-23.965387954566953,-26.2213229432148,-9.952747878557593,3.799935684225209,-22.60803783048601,-3.0773657332513524
0.7266098053258676,7.263639409660446,31.677716785308956,1.8249867931967438,3.0073077984198116,13.509287604456077,1.255796698820725,-2.0335644862639537,13.84539985554667,6.859486800314701,16.928733279761772,1.5308748913531502,14.608868742111968,7.994211013984552,36.86183108740641
0.7305163096555766,28.47027188402515,40.66288997156417,35.21998332772992,39.16203127002844,29.644203404142687,21.092825100752407,17.9032237600176,33.98581283815425,36.9827355930035,37.10722605768866,20.773934856282544,27.791190637687322,25.24973150509858,42.59466573760872
0.7344228139852855,42.35691760931128,55.81230831551177,66.48394409786252,59.82595614598441,41.23743684425615,39.95385449544178,39.473985099991474,48.16622304275748,64.85783347663676,59.15952547910106,39.276464903337015,36.68641734864592,44.077172593812804,63.53318630704554
0.7383293183149945,46.21854288984158,57.19025818229641,67.86436680878047,61.82317362991496,35.134113558305884,53.38726994029892,40.90972892793071,47.76568938449574,54.97858179663824,72.45476533978675,26.167138215357767,17.673677599062803,33.82233534057491,40.32715657590716
0.7422358226447034,33.85145159839185,42.475676651791375,59.813109704280706,59.482284049535494,11.689719375076123,38.58872982390797,35.26644676302137,26.699347611303065,46.96362915099504,55.022132947877886,11.496453187809262,10.651937426845384,14.208690607103769,36.61848210813039
0.7461423269744124,17.171908371793403,16.63637508574321,52.47281314080007,40.30637191445376,-14.743387587662184,21.47237517810236,8.212722557653763,15.297322449693876,25.219398198270156,34.7312910532429,-4.516530100727352,-24.077672977363974,-4.969381470562653,3.9553920211926012
0.7500488313041214,-4.9895603994192275,-5.476696907205368,22.246489878980768,16.541124190857555,-21.638286550605695,-10.557111484689797,0.4808496428690532,-11.91677669297288,0.8698534770033269,6.271661684146192,-20.642729282569267,-35.0979559498701,-20.81308493175228,-1.7122404353478728
0.7539553356338304,-17.731810236399504,-25.570043211522965,-17.541767293543902,-6.075692510338058,-34.51802950260118,-22.6708509507522,-34.71060426484542,-24.942135608787453,-10.679854608136651,-16.578097474857547,-34.64978489744284,-54.93559648438914,-41.09583449956704,-24.83328502644105
0.7578618399635394,-40.30624757925217,-28.875516948716637,-35.69739906668599,-22.216471862034957,-45.12513516312868,-39.72298829203445,-35.021045872790346,-33.6747603122312,-36.5001060579817,-25.81140746015535,-47.56519759121385,-43.868045848087206,-37.94375902318248,-27.08005664949322
0.7617683442932484,-34.81108444592977,-32.67342625343685,-37.639637722042515,-32.63537598955068,-39.90056714857496,-31.515381879525453,-33.36282659408118,-34.95142561566465,-25.849351933794843,-21.112348514807266,-41.20763726195508,-30.12498899504394,-41.707848184330665,-21.863729116660473
0.7656748486229573,-18.541300433254385,-12.295913036376119,-36.60169150226827,-31.98654241701899,-14.894204626676139,-25.81170471467332,-18.77689242502714,-13.57616629040255,-15.024808684129141,-16.042159542800825,-16.019286661971332,-9.389716977269497,-21.93417123028626,-1.44902864095506
0.7695813529526663,-0.5123877061337705,14.356516548923382,-12.318151589581454,-14.016101702046488,19.310736944012444,12.604175638999568,12.651882940790992,11.498883373285825,-9.28462214744324,1.1484497120042647,6.706169823275306,24.541986125631993,25.40709070014714,12.259513815560183
0.7734878572823752,34.922001713006324,32.055134074381314,15.723528573845151,4.54150739296298,46.647094171321164,31.330255369097088,29.897403472584372,35.47103532801992,19.597182606339558,11.65701740578355,41.490648218579935,56.03446493182,46.512039571663195,28.118596101611185
0.7773943616120842,60.46378107016895,56.98568136728183,28.817091498181366,18.764072758241614,63.727834099476176,52.7639507960188,63.00143128249586,62.777318362002916,36.549702013591876,25.13286612563101,71.9054060634243,81.23250506981947,64.4016224632908,51.39161924107912
0.7813008659417932,66.48604399904396,61.297516232148475,45.45174868181377,49.59499221396199,75.3266854773705,72.53873482066639,71.73195216207903,61.00778238230657,56.37190832674944,27.52713510902138,85.51576466689917,89.40566950824554,73.54058860692732,54.21671451879635
0.7852073702715021,70.17873136200073,45.4100098050632,46.359244965210735,49.01201224237328,66.61963423605744,67.97768662591497,75.50300141520842,56.49473484844641,53.02512789669626,32.644277039608205,84.98566954286954,79.21787468134197,73.5917760103506,44.48865419928034
0.7891138746012111,54.05742519988363,30.376152514783058,39.79033033020316,36.38807699207949,49.09279937637739,60.60596550770504,63.81166539514645,40.58302588756324,35.80388628069587,21.33413211746205,67.30838285035047,55.49391310006638,62.52039105553223,20.832909400877718
0.79302037893092,18.64966337796091,-2.326582863870012,15.008199508433137,25.777935030205327,19.387704624016816,-9.470578559732317,22.734756338894375,1.8185592515142543,14.097726551569716,-8.304649608046617,28.86004092201709,23.433809994384994,25.435063277836804,-18.47201884712316
0.796926883260629,0.8372695676249347,-28.34514079056237,-20.59999873436054,-6.825111908260029,-4.131734492932923,-10.223170488523063,-10.565957693513235,-17.05783488879844,-19.13399355618757,-24.14762833575247,-2.8005494153506323,-13.04197280036875,0.018421805138386205,-39.691834152526155
0.800833387590338,-33.04786589672493,-67.89402067424844,-45.31634252502997,-35.351788093557055,-34.76532684581069,-42.631604995906216,-43.93371911046563,-51.61171436492319,-51.04625897040853,-40.95392840475632,-50.37791368912535,-53.42670321750391,-23.318547257370724,-49.489506088163395
0.8047398919200469,-62.52064999436776,-93.7084696457367,-67.35188408284297,-68.02936600213098,-66.22128429608829,-73.82142563410646,-77.58188075964416,-32.95858612966702,-74.86787612342123,-45.63995655622735,-78.29867982396269,-81.56784348137369,-70.77562064432759,-62.28924522747484
0.8086463962497559,-73.80501883252585,-77.73495123926786,-80.58935348902189,-71.63141513094098,-69.65916408325747,-90.22243067304949,-97.64334508739265,-97.59100936197159,-75.00581804155784,-56.91283775217904,-86.82773937260629,-83.86889283383124,-77.2452907018734,-67.19438727431128
0.8125529005794648,-75.32341662915127,-77.338240290834,-69.67352677376411,-76.0875957330152,-71.51787843015889,-91.04301709192657,-96.49112988062025,-69.14870434256119,-71.91583938505642,-49.447439774109085,-97.53406270460113,-78.84252504702181,-74.71532870756464,-57.10933853034759
0.8164594049091738,-62.929403202778715,-52.6372044400745,-61.74632733714158,-55.65266840428899,-69.03060318086335,-76.59383312737475,-78.97069498955328,-58.598592002834565,-48.81464188501039,-35.55617283034486,-78.63567549324453,-58.25533944818422,-68.42080974595811,-48.33236849685039
0.8203659092388828,-46.305192734325175,-15.303950035060131,-33.129053197906835,-28.76363592229334,-48.01457789560133,-51.830993804208894,-48.59659326701291,-32.988528265550954,-30.14101732494946,-16.13013370843251,-56.710643350364634,-38.44430050606393,-56.43394799526289,-28.321656815983403
0.8242724135685918,-21.584690922628244,22.03090878767673,-3.525941293213561,-9.228404775293097,-18.61168807371911,-25.007339156761695,-13.358399852673251,0.7669567874819743,-5.994855038143331,-2.7845774153563863,-14.70554309659077,-13.401745415610835,-27.43986821418785,0.78760195959266
0.8281789178983008,3.3770517120009025,56.12800347462449,27.100168636280507,18.275486445261826,7.930880889417761,15.654150735122805,17.62030442771767,33.09147607516539,13.866951257843429,21.17279915228542,14.37712696078336,11.09117017751838,-0.47608148105246295,31.79071623931612
0.8320854222280097,19.092156174543973,70.21466081749817,49.759551087158485,39.38375918758744,26.417405269296548,42.20987642745002,47.615630781922164,41.22482946013432,36.087789766504855,30.7560513359094,44.90488018318885,23.241320003093346,15.087738733149395,36.4697357965582
0.8359919265577187,41.29856362400142,80.93208569758113,67.56630367505622,61.30892043533807,37.30870824827724,66.83842914956098,64.35270879232043,58.6709382631722,61.39937734254025,40.15907315986326,54.71991291164768,44.33418298515128,36.92692232547898,55.731517881645416
0.8398984308874277,51.77993370329319,70.1698822785563,154.85295149711084,69.4452676668069,44.842983920549635,55.22331731316872,68.74088343512159,69.97010473920034,56.29350619685359,52.6168831061468,65.0549836497023,43.2602006414744,41.940882596882595,53.18401754869377
0.8438049352171366,54.719760099279995,55.46752305806296,60.58912475959908,58.69727139191515,52.60998981327605,66.9728453332276,72.42943508352887,57.07583859451188,63.70561789123357,54.35357923107888,56.54972533765655,44.57096828282726,46.736645875218215,58.53504089437128
0.8477114395468456,53.18708998819764,24.680053691033905,53.050157798246275,56.881927411522604,54.58241747470806,64.57142581592124,47.053871021376,53.55195003870056,49.56745840877859,53.01501857044269,44.37839961037615,39.88298937828602,49.21406053499393,52.2440972266378
0.8516179438765545,44.96943613248513,14.13652824073397,34.6140426535343,39.045656709030034,44.39119029333154,36.60029582356273,26.85465337680153,31.950834041346425,39.18326412047238,47.086058458615724,24.596851402143855,29.911561990699518,53.31105313205408,30.625036308064715
0.8555244482062635,37.83079133405885,-10.878424517562589,17.19157145140676,18.721882694321554,38.80349641442493,24.256807120748196,14.856727622295193,20.61982661232299,27.304474960687845,33.54126327177,13.193603367526464,22.941102288394575,45.161496980002404,22.234084086538097
0.8594309525359725,26.487217301174237,-19.477988897669917,-13.220993974194492,1.9500722766404452,36.73982100568293,8.163785998850756,-2.09993873096255,9.536886353722174,3.5418079105190277,12.223429176726528,1.6390069574348205,21.4399048187801,28.93186146894517,-0.24002437511128072
0.8633374568656814,13.489319186030798,-18.711689319858344,-26.455872260036095,-14.965035667263534,12.962860464837522,-8.78077951054653,-15.429572763426247,-6.572979751481087,5.718568406912694,2.6546307272103626,-12.996282437872125,9.007035568515187,16.220448877896338,-10.378502068345526
0.8672439611953904,-8.848996719610964,-26.641951301465692,-40.074565483606364,-31.895217312911246,-6.977463183398421,-19.29499761919955,-22.54193464274155,-21.23395348653531,-16.567234182073665,-17.860449840109112,-11.785767300110136,5.7210006474135,-0.5982981656075603,-34.30946205363281
0.8711504655250993,-16.78277252146366,-45.28333200615158,-41.88240837467791,-28.282316225921956,-6.602119083984713,-29.802578013806922,-21.93239601777468,-28.382292262874177,-37.56220959680009,-47.56133918137572,-16.161946708485523,-10.816725706237637,-13.876544936760126,-40.58819740604457
0.8750569698548083,-29.645676128912136,-35.730214351912224,-44.74023421072299,-43.73371110638936,-19.236561908240258,-20.180187095853917,-20.83985714553981,-42.136450809937145,-37.791143593437575,-60.90207292386578,-7.410953605336702,-21.44268610369758,-24.082444372906107,-54.88229780494347
0.8789634741845173,-43.55492463991734,-46.93655357329039,-59.62193579619105,-47.276282507678715,-45.59308242696565,-28.94686529694906,-26.74060600443811,-44.485563689267295,-56.86072778063372,-71.09811535118769,-10.997333503279137,-24.520581578444965,-31.667826426613626,-62.96816189198153
0.8828699785142262,-53.15766772112682,-35.99802968122803,-50.60188172195141,-51.861734388938594,-51.288541195487454,-35.05824511171557,-19.80638169854569,-46.328266169358045,-51.234807843780104,-71.00015261756609,-9.003354447819238,-30.336579217021292,-40.926872763924464,-57.37677307051558
0.8867764828439352,-48.68218357924151,-20.773504569655458,-41.68447932504223,-48.83219736099113,-36.28732950199699,-30.901695755865774,-20.814877128017056,-38.13841769557001,-54.29130482720752,-63.72979755392737,-10.040111136084038,-34.57182066152815,-46.10268356649668,-49.112221777736025
0.8906829871736441,-43.51313139479171,-8.353568956600526,-28.765721286831912,-37.53285047136694,-26.962191701962553,-21.359738773861288,-13.642380965196043,-20.29210157711615,-50.559634297737844,-47.05629566046191,-10.142538817455982,-31.293946534420314,-37.18530592287629,-30.488598982038226
0.8945894915033532,-19.52162246728167,-2.168501902237658,-17.65387659748958,-16.976758032073406,-10.436549178902993,-13.438312061443934,-13.977130156955127,-13.45814985102984,-17.77030524771429,-24.891411495423768,-12.671599239503495,-19.28979928190333,-23.667962728570785,-3.1565376005461596
0.8984959958330622,-2.4741882780761033,9.628330093074863,12.817855623261295,0.35177448050032123,-15.461471209455437,-7.797837604470915,-9.241600445725089,3.1572540769017556,-6.7265559831002175,6.097787757182636,-15.663178722456783,-5.134256506596335,-6.7777749424227105,17.67852641212359
0.9024025001627711,8.030241961831862,8.73171263243524,20.247113055595822,22.67177439964423,6.7846438132760465,-1.351319997588372,4.264628034434018,15.544030863860552,17.080271938155875,41.48498875240739,-22.144004220386773,1.4983936894242826,5.275076087801482,39.387318626396485
0.9063090044924801,21.59109072642532,15.636310748770164,24.205355493237978,39.67315532192228,22.909324103897024,11.586633477381858,0.7289337986211,31.75422662482338,40.6287529422821,58.10485628229193,-2.3549918888707175,12.852321997178896,25.706374150551316,46.527824990358
0.910215508822189,34.422258199862966,30.477548384030612,40.138267809105024,53.33660540476878,23.396092217006306,13.275631775028323,12.174658840100061,30.362470262416302,51.633385124147736,66.73840105350358,-3.9955565140766325,14.891884156690123,21.93943903655959,49.51132698881876
0.914122013151898,34.34318097556426,19.92930653192085,40.12879125469073,50.56144361929502,9.003057213917666,14.164775242541847,8.020291659379845,24.69908846014594,48.951294417188336,55.038650537815,8.919187013671024,9.076575617859469,18.420804780272462,52.040892908099536
0.918028517481607,25.576908225099807,24.860138345264,35.22661544352113,29.39502288872912,1.6961650655108915,21.983951800883194,10.924691750954853,20.7137043657454,42.37057866588404,46.092416266398665,-4.5643855673923674,1.3134414028395307,12.2115920668534,21.045006118983228
0.9219350218113159,17.390956042104584,9.595390980221167,23.673989283526637,38.10871282508634,-5.336306180537482,6.610017072041517,8.745159726946579,4.847459288840197,17.817462551492966,26.9658457373926,-1.3275839767794855,-7.149142174907081,-6.483698171499228,1.0947192393059382
0.9258415261410249,-4.613560422106239,0.9426911338922959,5.988168964655948,6.452123001023775,-9.612842579270831,7.589956677037286,2.744045915096235,-4.421913131890181,-1.6585498061066288,-4.29010608666516,-1.3605086254289995,-15.050601458407979,-13.225903083914993,-13.632862402716576
0.9297480304707338,-4.4812072409662616,-6.637084036509426,-7.806510196889395,-17.515559708869837,-24.995340993012974,-6.537313074256945,3.604705998786283,-25.4309884349949,-8.056880551700683,-22.3114535831783,-0.7288168779090474,-15.811899704414827,-26.02672351277055,-28.527957363860374
0.9336545348004428,-16.09657676834123,-11.442865380654919,-7.866535774382852,-19.846684826290975,-15.813230366071645,-9.459929988276876,-2.6051440768241516,-20.71453857743039,-19.646324528950604,-34.87185196763008,1.940604105039199,-15.974617102261774,-29.898991482046846,-33.809721564339135
0.9375610391301518,-24.971267596050915,2.335323841687252,-18.408179029983096,-38.18048335359265,-2.871276924767476,-13.685593103450357,-0.24492991116433505,-14.64520063398843,-22.548402038516617,-41.20958753511792,1.4006568721375423,-3.067188940023989,-19.663009427651822,-14.486954375697454
0.9414675434598607,1.22760576225218,4.2994579175589935,-11.40821038239974,-18.37586863040726,8.059537981801245,-3.3081073504696192,8.392177094587716,-9.915515371974678,-10.370514355723348,-30.456312125278412,23.800673397125518,15.272203213062696,2.784777245968831,0.16087869164820523
0.9453740477895697,22.141301992404433,11.702363094470336,-7.300407697103706,-12.895126115991218,33.45374291669197,19.52905132693233,21.73275799017347,21.714032699602576,11.72957939589967,-9.349318217410799,40.78680083445789,45.12034579713274,20.558892284666054,11.299757646668283
0.9492805521192786,22.156709620668884,30.47395409101135,-0.6149259137076601,4.831639433120737,54.59495947240931,29.788645295195614,39.178976392310084,33.37072543724004,21.435105239788253,14.24645787174414,46.185780930627885,60.99918863051479,47.11047973796464,31.431667042464063
0.9531870564489876,49.4500089287111,29.39239363754271,28.386928356319032,25.98958751709402,70.5985276801812,43.21974071033899,44.35555682614262,42.93491078503531,40.99895474553422,32.08304210016792,60.033376452297794,66.35940738007963,59.935486676563876,41.38576798486088
0.9570935607786966,60.325645815238964,32.43006193860929,23.37817698739878,32.249258591052644,65.34519987826785,57.275711808820084,41.900073514754546,46.57495509538692,53.27926467310403,36.641752510550134,53.042439040461986,57.01817305753103,62.30517029806874,36.31743773738424
0.9610000651084055,42.31625011306099,19.820659015032053,29.925547263482567,36.89798802967673,50.708316595369524,34.68769093388408,32.09826054097305,24.907158857941635,43.57063549874549,30.248311146643097,34.181054659891366,42.75815601949344,59.73453872139494,25.769131647666182
0.9649065694381146,25.26878851273206,-8.554853577782227,6.304632206335713,25.25096028125006,19.96205615965464,29.10979954725962,6.033165327027714,15.201856777105462,13.45511326257341,12.966713794796604,17.940191043317743,17.900514061335176,29.601455121194313,1.2930111577093624
0.9688130737678236,-4.684090273509054,-30.168141932116402,-19.462286374314424,-7.124701637630487,-12.055772836632727,-1.5794239260571468,-24.408577189605786,-27.150564798487096,-11.230287712261159,-9.444624784109058,-13.754262262492414,-25.153486915278105,-1.6681119022532034,-34.84943762980039
0.9727195780975325,-34.471238470937024,-49.4223201552241,-39.95465944984808,-29.27444653894124,-60.532457347453416,-40.48862159343043,-37.439621986511774,-65.74280546876797,-42.7647019303302,-31.662321886570023,-46.916800962573134,-63.017616139617445,-41.788921677481355,-57.63670893128344
0.9766260824272415,-69.88297771534498,-73.0710061795921,-56.67439976388826,-54.44687838212272,-87.73126307953457,-80.69414779481895,-82.74627053867577,-67.25650913633976,-77.66494742547575,-66.23348577479912,-69.68481391146535,-86.38249887781559,-77.2014180140802,-82.89731455647625
0.9805325867569504,-91.28676354793137,-74.6493162818964,-69.07878479429752,-70.68162353280803,-109.80843105833814,-90.19152829781316,-87.12360025200638,-93.58224347933142,-81.95538960270898,-71.58592036589171,-89.2078642647345,-99.88180353687318,-97.55732616782555,-87.8227426228998
0.9844390910866594,-90.49570148495945,-68.86096250181717,-79.061878546758,-79.12119385045835,-100.77101848173774,-89.852473422729,-91.38740222372542,-90.76567627355699,-81.1656680407759,-75.75156389225167,-96.54393207922102,-97.57570283078975,-95.85189500013858,-78.18780579039607
0.9883455954163683,-70.89617416310669,-45.045542771895406,-61.92141992716519,-64.28178967698027,-70.57424276620605,-86.49312103655652,-78.96298867056792,-65.36182144952761,-71.58929825332987,-60.165451334889966,-73.01708373403513,-74.17069023249847,-77.29104022060869,-55.01363656421275
0.9922520997460773,-50.34807473297243,-2.659336927565432,-30.52930709832547,-30.552936015502688,-49.4971373277939,-42.550438165369115,-39.43497652532849,-29.884873988785902,-43.103904861501974,-23.355835576885823,-50.60116526432521,-11.064316385766553,-51.833374493160456,-19.292460871092196
0.9961586040757863,-13.419593357919062,38.1113242446893,1.9602679094797755,-2.1494062641804725,2.348140104443072,-6.578057550919136,-11.91590139883162,11.441975441142379,-6.471527865278425,7.90113553155119,-11.439305007694838,-4.357107122765859,-15.878162126367043,28.693047207084366
1.0000651084054952,33.01636815937381,74.16165403596288,38.8546866378773,44.63347189378524,36.716292123476094,26.711746379042708,40.32960620056883,53.68481265471389,41.74586340987574,47.23190241146039,34.242285232168655,48.83893397819256,21.05979403493515,65.88674139456876
1.0039716127352043,64.02615915114943,94.15905454048749,78.38934742691798,73.19726951796913,73.28784454178948,63.474249054714,95.28793778215216,90.1609683373419,82.74459995190841,71.41821487547617,66.69540417803006,78.67651015486383,64.67044961065602,91.3341486727216
1.0078781170649131,88.25803507159165,113.52186462821857,91.39552884893241,94.58052778159077,89.10400107384355,95.97467231277237,94.39107071421016,102.16110370050495,102.23459796680339,96.44416168813746,95.7506365225695,83.21739071393255,94.1166620416045,102.21610722207168
1.0117846213946222,90.50535857784955,100.53404335700706,107.53868467189324,114.84889420560783,87.05691882501976,98.45704547909098,95.1980333781725,99.74067090061253,94.26435013345908,93.85392384955796,98.15991110030147,92.55507371154673,92.85590515894042,102.13082066685408
1.015691125724331,85.39318306964863,76.27745550247863,86.41791708611672,99.83278832034577,83.43795342576094,92.31637183625485,89.93489543120184,83.60454467210961,83.42933085871633,77.62445543298035,81.23391556324762,78.8207512734844,87.40537658370764,64.73429162610358
1.0195976300540401,69.81766700939282,33.662243176388266,64.5201209407603,66.19363433220464,48.813437138734024,68.59305821106763,60.71201935741409,49.27510726218942,45.93736716012904,48.5915281549468,56.75770710172005,50.634907735721356,58.39994174591324,27.440872954360838
1.023504134383749,38.96397160044752,-19.597881047701765,22.305471245234322,16.74736652701477,9.74171182983146,29.685905065568406,22.590715651752966,9.656205134658709,15.332640895128492,17.543997335564335,23.825941203504215,13.201997749826937,30.006045707880475,-3.4520054677161047
1.027410638713458,-7.694944351595338,-48.70798741359566,-25.32486982137392,-18.713391185221774,-17.27249259165216,-8.434170616460243,-24.646317355240583,-27.59041241800033,-15.087057722849707,-17.525952006724747,-9.870699060612367,-15.106256392893135,-5.644640531686024,-43.09578586303052
1.031317143043167,-36.22619114244577,-74.79177576038501,-57.08635098323212,-51.20251983412667,-25.284455883105935,-49.28377143287422,-57.49023376573196,-44.46280333160341,-36.687336775809165,-45.63514707730193,-44.60789972104465,-39.22518881549975,-21.82824469478974,-58.282608706608194
1.035223647372876,-48.918474137930176,-75.77019964995124,-77.74156780433846,-76.64343707212447,-37.95507848537635,-60.88377239502698,-71.26857819431223,-70.82029540290621,-72.7694511479044,-66.75915602165746,-59.513430848785454,-41.193485940748964,-44.92648480649898,-67.1237269628777
1.0391301517025848,-55.41068863933031,-73.61819631699521,-87.03862668410108,-88.77306663965462,-40.55718592773087,-67.79331806603406,-67.5598551620173,-66.26012646360138,-77.58803307653955,-64.55724971822656,-64.10825081141712,-38.79040950416152,-44.9264625124659,-71.53956048976656
1.043036656032294,-48.33668966244871,-61.525320625484305,-83.32512238932651,-78.32672946076684,-39.50796933239468,-64.60185995763918,-65.75616852555252,-52.04196474949539,-67.70842755891742,-62.779743599499916,-49.16380888605895,-26.769496925826285,-41.43979838775134,-62.71980466561317
1.0469431603620027,-40.31324392359932,-35.83394579998839,-56.518918157017545,-56.58859763228959,-25.584449729695645,-44.213291500985484,-42.97770440131172,6.698253326271399,-44.60988014240196,-51.021029064274835,-20.470971871175852,-19.651971543001775,-34.67344966601009,-38.07573411735045
1.0508496646917118,-26.203569610422107,-0.3971322156906165,-31.429132652875712,-30.21456397410701,-11.796727457865492,-9.15730446931014,-28.30852945302004,-12.45259156612743,-17.752369504299704,-31.65552154393809,2.4523247646161312,-1.7813725777360379,-9.599505572213292,-23.34087059220661
1.0547561690214207,-3.107560602539991,24.0378776165861,4.1619682911033955,-1.571477544460695,9.185325400111875,0.6188678749707002,13.12475509490734,-1.083189193660889,-8.967065746540268,-12.040899741607097,18.632744888156406,9.814337495252758,12.87256584652267,7.400230339370324
1.0586626733511297,12.95028094769749,38.64047517451934,19.860736170055194,9.472154806342619,13.723444026831437,15.058730279624404,31.50212887480797,18.430738006455588,3.603583880408996,7.439225686036328,25.436052718746733,15.758062165458217,5.4881446365040745,17.409818994159195
1.0625691776808386,9.831019952586422,35.758869342478995,22.32699074327345,27.615251523533352,7.146304509625606,25.945743420199147,34.87517750116177,20.59084773782078,23.376897013006893,21.90829985150102,26.643812454796514,4.469328018835525,6.519726105523409,12.774966200595015
1.0664756820105477,21.089194795172773,25.009449408252838,42.82790418768202,28.414616114074118,-4.342391658914419,23.933332604533767,17.758541128066827,17.28165221114473,23.972032714861843,23.900406598319808,21.82350429452081,12.192373463122898,-6.76587464285792,25.57618969569036
1.0703821863402565,7.271285360457399,13.884394408643486,22.05066166487025,32.68668299906156,-4.44447111871599,3.3081498729765926,9.786377460033997,5.6195275070121475,12.477010050595046,24.889562599837785,-10.349935064625537,-27.860213166787812,-3.5877099493151245,16.69122550084909
1.0742886906699656,-3.623269983702527,-14.054013521836819,22.643824935381218,22.222932466661817,-18.370935416104537,0.5451166124273952,-15.632880223630377,1.123593193908781,1.9202446172115861,22.244545735558976,-26.727777628229667,-25.50988474224622,-13.706380182770449,7.4060820086537875
1.0781951949996746,-9.819253305544537,-16.06551317725966,3.368448395876855,5.845466688947057,-21.18109069630114,-21.33850540205975,-19.36419800852537,-13.992276429920546,0.2662236283638366,18.83968910198977,-41.242204777579644,-31.026766942537876,-15.506211769318988,9.81859673776578
1.0821016993293835,-9.331288178553061,-21.696322324906486,-7.82533914174459,4.015783943603145,-20.97352894190231,-20.18623633793281,-33.58163131821674,-3.1658104046953532,4.974099302449266,20.088618087071715,-46.238454033380506,-39.46596053053471,-18.50691712369519,13.352758659446145
1.0860082036590926,-9.34293855129413,-18.84864818722761,-11.456463019888194,-7.644427718540037,-13.108223730538567,-20.883243996185364,-23.39786852808893,-0.9663432768693685,3.3117283557221158,20.14276083958643,-39.42378405040173,-30.460717913885677,-19.795423496714797,23.761056144947503
1.0899147079888014,-0.1317885959401388,0.8996962131555266,-4.2259800501530576,-2.4485250450734144,-9.1130827966617,-5.676668849449095,-10.88397585853538,0.11982643653068575,13.993508292752457,4.97221756849957,-27.659558401833028,-9.495092445402708,-10.072518614553747,6.697642324212981
1.0938212123185105,-2.3040910165878845,14.842407947001613,-4.179620499801694,10.00551292981448,0.17816511829074866,-7.076433817561099,-7.9794576457541035,20.60024303225459,11.592677832622776,8.768409848339317,-16.108461297300813,6.724169908629831,9.156024059865722,7.438656972719968
1.0977277166482193,15.17924726628501,25.9249366001196,11.804049660487154,7.7597091833165255,16.433089411229094,9.478872232732444,12.067184682566928,15.891709230244466,9.526652329864284,15.950034742067865,18.395626074286067,15.939947946096412,8.48959954237759,20.138196680605155
1.1016342209779284,23.036390544551082,37.61839982743533,7.867200086428753,18.163911036447253,19.725183789322557,20.329917037424774,37.19586752554602,27.03403564258284,22.480638369762175,1.350037304705837,44.32851909620739,30.778089412773035,26.122214148914757,18.277524074999896
1.1055407253076373,23.87271233322202,43.52305559077021,18.926081525233233,19.213363754460858,25.3779952114537,44.06018907405815,52.06053476369633,29.806616603551984,18.4478878731428,-4.560273315170652,64.10260755837267,43.60940535548923,29.432960911701823,9.584371920151447
1.1094472296373463,32.65517569554236,34.338432766743225,25.951369858599882,20.6549925916321,33.14421520814813,42.610254185019436,51.97429269441122,40.19368345945326,15.67817533814895,-8.125220860465344,59.61960878304912,45.22065742676741,33.3032949753553,18.851867131980473
1.1133537339670552,28.48455170345704,30.225509696018214,23.819544378542723,12.653628993377797,40.97015899399248,36.29056994821627,42.21144470962377,29.58061035399666,18.069827319274836,-6.2711837915337085,54.837832699758266,52.162952892036536,27.24812135363653,14.076882141899343
1.1172602382967642,20.144611473532567,12.77635546975277,13.558426805999805,7.3682628648774635,30.943911109217055,20.894849780204254,39.59297039636504,17.65595859990828,8.127399539391236,-7.682183497972929,48.09492396309775,32.378609212743974,29.3519451685438,9.267597084090996
1.121166742626473,19.940416174246568,-5.932812028991045,-2.184416751396052,1.4507274346868329,17.901960844951027,21.361101264110147,8.131905064788771,12.49369103156555,3.62060735708787,-10.550230870584944,35.308754561535714,32.97608227425902,28.39729550455377,2.7622771232273404
1.1250732469561822,25.381896897013064,-23.320646873145154,-8.831613411221248,-6.809311262406127,18.37563702494989,4.294586207230173,-5.408185653792548,2.5783286228863127,-5.249547069825114,0.1350481297769015,1.9740809049058754,15.813966214687955,27.722399083434833,-1.9287023237042291
1.128979751285891,3.9695798472868207,-29.35786589595274,-18.98109652699733,-8.328838149674732,14.424424234239677,-8.057611752627352,-23.601872308878153,-6.622205593969139,-19.57172731563858,-3.9465990145875383,-12.825498180082468,-0.7279507593822165,17.844367906923164,-14.255327052514293
1.1328862556156,-1.5118599306294564,-40.0970678637505,-35.63666800311915,-18.24298016789127,-15.065665121644454,-21.60374648671915,-26.07632723625517,-18.275562364557814,-17.99946953117909,-4.489290864538028,-39.42871200570053,-15.765140707311327,2.439840760861501,-11.478906601754703
1.136792759945309,-16.825479905297648,-47.23402862794194,-26.959711710133273,-23.826845767180824,-21.80239010208396,-27.405739416015194,-46.993631185648404,-39.64093782082555,-23.537622511939606,-2.8323293820112596,-50.21741027593696,-28.902727345883903,-16.347659275047967,-17.36047337529586
1.140699264275018,-29.75121424238823,-50.637783333901844,-24.517027748262414,-29.433087130130403,-29.65950957014296,-36.01737835744974,-55.96095929207912,-45.39583861771557,-22.473847465012113,-17.551142865878333,-52.1717230353649,-24.942425324123775,-29.03559169492236,-26.85489720134156
1.144605768604727,-39.16499321246393,-40.8110720046625,-34.81412177764476,-32.11860842257969,-46.71179172705891,-40.64349899921332,-47.175177044239284,-43.872356951439635,-41.93008496488884,-29.401849514549355,-48.977382703142325,-59.32789693930036,-53.072987522979744,-40.52185453115734
1.148512272934436,-50.75049907418605,-44.94057872237771,-31.18940310462325,-38.25493935294604,-60.66088297081539,-48.47728421531972,-57.651418245210294,-34.638982442746844,-50.551069048583045,-32.14695043995545,-49.91317643907627,-60.08079541842547,-58.035272525667764,-56.945776388511135
1.152418777264145,-53.16415237822158,-23.53444607425328,-24.451554989588292,-44.296191616962496,-71.3379686121392,-47.530845563321044,-42.053871140805725,-46.20148720878889,-48.578351613079214,-38.56417563517253,-50.82175671182635,-70.35933993483657,-70.29506719580476,-46.83550338152333
1.1563252815938538,-56.55136626090924,-2.9178420679512067,-22.95200889774603,-33.74112957038935,-71.56722716084268,-44.296282273469735,-32.38394614225814,-29.917483428408072,-37.399909708062225,-45.18855904992038,-37.54758400092138,-59.15509821941123,-62.6953645799281,-35.416359316541
1.160231785923563,-42.63168747140723,-3.749708353510453,-9.631590852992732,-19.19081604876932,-51.13401234718593,-31.13632352201177,-19.968929148911293,-18.160515811399016,-27.520893410427647,-29.460349611398364,-25.535057898756925,-35.43532343410503,-64.17794987404572,-32.564402007091374
1.1641382902532718,-29.953927118293144,20.982121480327855,-0.23910927326910958,-2.7823040009250692,-22.819853196639038,-13.514222673133816,-0.6925537337478875,-12.258372905640591,-14.729776909764201,-9.890739380766664,-7.872938819402797,-10.496976467188702,-24.05616746898356,1.0122716190173837
1.1680447945829808,-6.274077572352715,42.382375031144434,23.64359829755898,26.100727732377816,0.5539446398789201,22.262994724499418,25.939034269932602,20.321171340382108,11.973994656489827,19.723147055370834,14.692504979227564,14.512154402882224,-1.9376585933767854,34.43520002956329
1.1719512989126897,33.79378252797807,55.05807100084762,42.48499246319227,41.56691590874741,35.32166058051737,32.59897174696015,37.904563862137486,55.49331976999908,47.88804319647639,50.44242000232103,45.00761438353835,38.06109099862666,21.81463799624905,57.151703645431056
1.1758578032423987,58.92215014424445,65.14157188766305,55.304449673641315,58.82332424869004,65.7085383943148,56.192031051673254,58.06489613634787,78.69678566757173,60.16290337977525,69.29469791442219,50.52443792588087,59.69661885881978,56.16383596755726,78.35967771974873
1.1797643075721076,90.1963048197345,67.92702264412469,74.60942548007584,81.11211344221283,0.3464839443780363,68.30694752783073,66.24246835122719,80.54421898115265,88.79014503864416,85.77610085028822,66.9891765887554,83.1051445525899,86.36488455617888,87.89615448724224
1.1836708119018167,83.74269962629572,65.0731006061684,65.91436801273535,77.09990171546066,88.59468522014656,79.09687458340046,73.44015770145688,91.13919313751214,83.85621331487093,90.55304353275511,50.74821333423047,78.56529499629656,89.9290187206462,88.39907325972695
1.1875773162315255,83.13514214132128,52.05837358740337,60.93581820750027,74.30235513707724,78.85943012417093,73.1366395320487,54.30163522930786,71.6363158500177,78.17437292660424,76.45870633629922,56.74059614975607,65.51990102697539,86.52499789695139,60.36963654546519
1.1914838205612346,67.1494167284717,12.350680561670458,32.748627181650086,46.912239517628535,58.82847792597295,52.46867721143625,53.71897922802893,42.62924076679287,50.43837542296944,51.06889234621355,43.389422568930655,43.51809073598375,56.40556811983939,18.51945051138508
1.1953903248909434,34.03534460735463,-6.141839031317216,-1.5728403167862002,16.289445592580094,26.959971329980846,18.396170422072395,14.672392022580826,-1.4672238088763123,17.92567347784766,7.708570632873493,16.765269016772766,13.444299059766116,28.64296087320471,-15.39649710057892
1.1992968292206525,-10.33237897859599,-46.53506679923958,-28.749009133782803,-19.760689499288446,-17.675165660074384,-14.129503789510903,-9.033712878176544,-31.15577020366192,-22.411792519971563,-26.799182849778063,-1.3601722672372656,-20.404325673778967,-12.147234259265321,-41.55010884609278
1.2032033335503614,-47.131977710600275,-65.12006277997871,-57.476403407555985,-53.992111793563325,-46.74090253301549,-45.48557633644116,-37.28963554702492,-57.492092595767886,-54.05294844777693,-69.87320562636991,-33.76624767910778,-48.92863998065349,-46.85970053278553,-82.34027271178985
1.2071098378800704,-69.75585353593206,-69.04125674161162,-82.25343504015133,-87.5269586972453,-64.7735630555867,-97.20433714505326,-59.1812764112249,-79.65802468082184,-94.43044165361655,-93.16384714734814,-52.76951570648856,-59.09975909595523,-73.79844379811394,-88.92784846415331
1.2110163422097793,-79.52966544888623,-79.27439525808413,-86.67589850661761,-91.02405359953732,-77.57413957313774,-79.16820159873053,-74.08243358396453,-84.82811440231299,-90.51046106593304,-104.54134264773967,-54.91195123997091,-65.34577706862812,-82.54229244512403,-90.80228601304505
1.2149228465394883,-79.89704904379973,-65.5934151903136,-84.64793956746895,-96.29928689977746,-67.71605923918871,-72.168814385561,-62.5567652268014,-72.72498820322886,-87.69546057709587,-90.54760127804309,-53.29608442441404,-47.50533754476536,-63.829157073330485,-69.99415400832673
1.2188293508691974,-63.798768595857815,-36.46228165829999,-57.656587038208855,-62.49034174342962,-40.06343596959085,-54.02654600594423,-45.8290927796859,-42.07756601213575,-54.2852574140138,-59.192137041227326,-34.2068159572908,-39.92214553937686,-44.7764068994495,-44.09622110730605
1.2227358551989063,-39.292686710327935,3.2243667817131465,-25.314901657781267,-37.47264940634937,-4.4969020837625875,-33.50557244117291,-22.88728617735073,-12.644831171450639,-24.667430857117363,-22.262425412438873,-9.276857029620874,-2.2804385602720694,-20.851578520116682,-7.642027551810226
1.2266423595286153,-11.40094513661329,20.027761513705283,1.1136086357795456,4.6925302833847296,17.266009319546033,1.8451707744692336,-8.274828619925431,13.448436880156162,9.780240626627105,13.777662690415575,4.641387520127406,23.964670008578537,9.89591822272798,31.459818780987312
1.2305488638583242,28.923903689075065,52.003500867587015,30.141380514582593,26.59538632887962,26.070259805419838,27.18239083442789,29.82571421207821,40.13841859221953,38.12860079025044,52.26841598580358,21.646577947093526,36.86320024110523,33.263592090086206,50.7530690500601
1.2344553681880333,49.75782182275334,62.03527608096909,57.25295010049148,56.516388586817996,31.459377765902232,37.26333843187102,31.421691302592247,63.09207968447789,52.797462850911764,66.04767304678107,38.727794874623164,35.8423607787099,43.28481706402736,68.49723134192409
1.238361872517742,47.608134280634374,54.1254912826077,68.90067849385423,63.89522330545349,27.51151646400818,43.25590468410748,41.874424912353355,56.13138977126553,54.677120914274546,68.73754806234984,31.113187817538233,27.809174577765397,34.013631558646246,47.25535433561869
1.2422683768474512,37.74912821382257,34.062783184055604,64.16133912093656,47.3612821923749,22.575191404480787,38.75806276945793,31.941427395899847,32.57857975888171,51.519557759997454,57.16667557368124,25.36035831533094,7.05596050546122,17.579556407876456,45.39154855686242
1.24617488117716,11.723938394387925,86.58014131443782,27.89797346110062,44.14441275034235,-15.74880886988492,19.31727732480657,17.32611608029365,12.472509998961787,15.978845193374204,33.97448730531424,-3.697705245383743,-17.275361803678678,-3.1195464357777434,11.897264441616022
1.250081385506869,-6.560927581758113,-14.945263649469032,13.725820944286696,9.806292763826741,-35.08923522861396,-12.160913305666035,-16.230188722471972,-16.523488794168422,-2.431933136996827,12.391222720802098,-30.62032095600228,-49.13291333244373,-29.332889167829567,-20.598064565992637
1.253987889836578,-16.318542683415487,-22.58145378196058,-14.741509637967823,-22.007123133990167,-40.64133999819601,-27.27925270737538,-34.029327360471946,-23.959940538550484,-20.003647866454465,-19.211942136374024,-46.58321402893509,-47.72322259220304,-30.92815845339082,-37.48035219896076
1.257894394166287,-44.56977028503614,-38.89186774892381,-32.54117850829967,-29.42046812679999,-51.24257117062717,-38.93732717970272,-33.36808703902332,-33.14877553137363,-36.29444493739739,-30.57603890650883,-51.27876104339733,-55.908439327498336,-40.921788813294,-27.00423649607792
1.2618008984959959,-36.06907821429025,-28.50369513114338,-32.467780936145694,-39.32391400718117,-32.565351573296525,-29.59525360987816,-40.85259701511353,-28.648685186074125,-32.37062394530232,-31.475689960098144,-39.14928888257401,-30.884731401957126,-37.65422354399521,-25.573922832204232
1.265707402825705,-17.200758216824653,-10.776323734992616,-25.890844619905085,-27.87237221411158,-2.0495938164350322,-22.501819878611403,-16.09974388274126,-13.180892930998494,-24.235303773851975,-27.804501016873964,-17.288785141790935,-0.6427283930500636,-16.544082302974772,-9.167349916879514
1.2696139071554138,3.3215806716050356,17.24983415377656,-20.949229949002294,-3.915467771161431,18.04215151242155,0.8998299217144043,4.8932162959005705,11.282555682895165,-3.383030734769221,-6.113116605623218,13.26376039711859,24.25763824487497,7.795618874332726,18.264906013983975
1.2735204114851228,27.791120662126538,33.69752734140118,12.766021648693872,16.32675463890902,39.4881417685894,25.83669914422822,36.38854128155771,36.687618178771466,29.517245073636865,14.00018172444701,46.25781991672689,51.42993722660992,49.931225240064734,30.28720311832414
1.2774269158148317,47.78282885899894,52.93424833319788,29.948497560393957,25.521510920947435,65.33165457738343,54.528903535208535,64.09243384754109,56.91115757102577,40.57262489648782,18.291961509506717,74.28967652494327,78.87812596008456,59.54889390681224,37.309412716531426
1.2813334201445408,64.45488160824955,55.528232268939036,53.75772160396109,47.41398147789611,77.32703590024961,72.50408745808194,69.74326373277694,55.06046238516124,55.486326286370854,28.51144795184342,84.05229342270307,90.41292418565692,72.00372953272836,50.98190620733466
1.2852399244742496,72.72912770570476,63.63754975860887,45.442235383056996,47.525177930281274,67.83807208631717,66.60396249332808,81.0309053149023,57.25900980685839,49.945564249203976,34.189114466544794,77.53467826856772,75.89346127659903,65.44717592857236,34.21246556952794
1.2891464288039587,53.07405248495902,26.11500568935755,35.95918569702537,46.23191913472635,46.98146682067615,57.49841973117652,51.17166144516126,28.33077012737123,29.5792254476804,26.97984708764555,68.18964658414414,50.02866493265735,54.91358825732195,21.697706391622603
1.2930529331336678,23.55554812638434,-2.2713604634194886,11.361146885725562,13.872635172995848,21.881567004981935,33.452203039583885,29.798969593311877,8.744410259184395,16.604982534542334,2.3813658073308326,35.06008385018291,11.208994133445056,31.275079032981452,-11.919053858097072
1.2969594374633766,-3.185135739386831,-45.39908715254511,-3.492480775248376,-14.698189397581949,-11.722600805419837,-2.800769423776143,-4.011152284380024,-19.099589316091688,-18.706434121739075,-13.395080124199648,-10.307567135765826,-18.476420833580306,-3.2894255267847727,-31.20919029670612
1.3008659417930857,-37.19193121944754,-70.96423891250292,-35.075531474296845,-41.78527320508839,-42.18995610878986,-49.44680707422924,-46.692058578904856,-58.938935221209384,-39.0843282974418,-31.312460740305077,-44.597481372355,-44.43980229204653,-25.378001128218447,-55.62970774882223
1.3047724461227945,-68.43383602447253,-94.50109852198312,-64.61240018691241,-60.62361214704612,-64.48424539512725,-73.98266125097886,-73.54664798588203,-78.25018976209789,-72.73924270896048,-48.68387305362931,-82.4155302553905,-62.282437493438614,-45.98354132026485,-71.14831671281519
1.3086789504525036,-77.37548129288894,-85.0739888653238,-67.18948045430058,-71.97956650603115,-75.922152141632,-89.15359658668845,-85.19445626983752,-81.7305282038354,-62.900728802785395,-56.28438309645074,-91.16568311980295,-82.71324262481019,-72.74367303939758,-74.21388771549405
1.3125854547822124,-72.12916404457962,-74.29445486200567,-82.66398025979778,-75.84640616084158,-75.28643051703399,-90.99124627104496,-96.69574823316943,-74.45340008342019,-67.29144712621168,-52.8546233892094,-93.67218666609251,-84.81563666050324,-83.38199959417936,-65.19706772215007
1.3164919591119215,-65.75202094886781,-41.674624038306945,-60.00857444656428,-59.36179023925239,-68.7413290879535,-71.42389537430645,-81.1453183603133,-60.04404702866134,-54.5222550116156,-83.2131687262169,-76.72200922804893,-66.82401668691013,-71.88103236941784,-41.61148038479514
1.3203984634416304,-44.301265932838284,-13.98760061810086,-35.63474394803684,-34.91822925777261,-43.03151192843749,-56.62799069485173,-48.647576259971125,-26.432650248441277,-32.071344048306266,-30.600773220498613,-49.37916701401608,-46.27573737809558,-57.985624027254666,-13.203385581372451
1.3243049677713394,-26.26156678723055,22.62304200685754,4.108962636664874,-11.1955481503642,-20.56746970706997,-14.321158207447414,-16.22110519185026,0.008316396562037198,-6.475638840973444,-3.1233375458151067,-15.466481680740108,-10.682838490435396,-30.146204535398006,1.4439204352147614
1.3282114721010483,1.100013875692706,57.600047990919855,34.01319167112276,26.901543788187006,3.4132876672935755,18.209582120017547,17.600434251380747,22.20345734240972,23.430479220908296,18.801827970822508,19.204221436840307,4.161882334036546,-1.233034922349896,23.53473994887579
1.3321179764307574,33.06663001823101,80.76169147177724,45.52715877001603,41.85221915826134,17.58414757454797,35.7752716171916,53.61556045005378,46.35097187003092,34.941165684722044,35.592517635911044,50.182338866092394,27.81160857724158,10.001288076688299,45.08596676656239
1.3360244807604662,47.47304435000928,71.87603830995022,67.52410402732241,61.213318588671235,39.480791226005024,56.817219236274134,73.67402604486792,47.0051104277974,56.26040383025827,41.94950334067467,56.346951216095064,44.84305721192486,32.90976266157967,55.456423368191935
1.3399309850901753,50.12659741990397,81.24891325207633,73.58004066564352,67.62870753857172,35.286997240163714,66.56847871412822,64.38195701362883,64.56205801651969,65.84115701939506,50.97943391945492,73.31070190060356,42.94475469962649,49.647553449716476,54.037434392474346
1.3438374894198841,55.5653655051515,71.39452320790278,70.50744674201421,75.21478675477024,49.45883256245482,66.66236002914613,62.376005023107524,56.125876622155495,60.38756951597694,55.49794124393655,50.224502711434745,56.56344911837557,49.170263161646254,52.171036533714165
1.3477439937495932,46.9845444716369,35.09947726874832,44.56539812133724,48.983678817575054,46.19531205772517,53.488040943106945,43.38486743199887,46.670601643320616,50.105151025984355,53.288470826702174,45.238976443108086,41.95305588024355,51.02780191231755,42.35276430827717
1.351650498079302,33.22043462783479,18.52430310830539,30.340379140497365,37.00709013408113,49.87376253657973,40.35481628488404,29.379084205391823,28.69626101013203,41.130988221382026,35.19037300489262,28.285921894037198,31.9569919991947,49.022151016633266,40.710178601394915
1.3555570024090111,39.03588702967408,-10.596926777303521,11.44440808188992,16.39654343428976,40.76538021276723,24.96587837065355,16.787106438263148,20.035193018583247,34.58088008876656,33.156071185343194,10.407811065531224,24.620521646226138,41.35116703378084,20.91891928295625
1.3594635067387202,28.36990356863785,-19.41873437324952,-8.42959514468826,8.31518658719326,21.884433447429686,2.007994318252366,-12.280362523221232,-0.6193597846080499,14.955836263365667,20.128788873455356,-2.954645389472158,20.30508195206832,32.73659348061755,-0.6956196712975089
1.363370011068429,8.246626271526674,-40.271405179590154,-25.426226335628957,-11.819460450057283,12.168164750646339,-1.5112997337130052,-17.293419692579047,-11.603548799150115,2.532332275222889,5.171132327085126,-8.83899272567261,9.948513555354136,22.10216666492808,-10.788909205663888
1.367276515398138,-9.347700494405558,-39.630778660934574,-44.31728368541873,-27.580900673541468,-5.230471741268767,-14.94387108661855,-25.63719340455847,-23.834519628559974,-21.10856720467532,-17.578570297271558,-5.409232150559292,-3.8417381432115243,4.615901835131874,-32.74969079647968
1.371183019727847,-12.62327284335301,-43.369330384446364,-39.60376186202497,-30.986051024364393,-19.2953266883136,-11.424707377111044,-30.326149079385832,-52.66962708721992,-26.612378913794984,-34.77463705210434,-16.86944639736409,-12.203824182155477,-14.320287883021576,-48.61386382688702
1.375089524057556,-46.665418921871975,-45.30492354160795,-52.15070591863191,-42.19287676575385,-30.83445506793497,-36.0403091750011,-21.792059263651,-38.53597669974894,-43.66511959654983,-58.332894366850844,-13.723203748287084,-13.741240048294989,-28.57295793033743,-43.947646223192386
1.3789960283872649,-50.0970529985815,-33.355512538013684,-47.036147424618335,-55.66734761870675,-45.14966562196579,-34.782592300211086,-24.089119426949836,-43.61541429837293,-58.26297273518573,-69.14069907322272,-9.807410317206882,-21.885965683872783,-33.13134935060698,-65.6743083744662
1.382902532716974,-46.84049487871946,-27.708940506309446,-42.02841545642045,-50.45053715313807,-42.47087185438511,-35.66719781498269,-28.91930798639746,-50.789230874719024,-53.810812237771195,-71.60579885159075,-14.439671821613222,-30.38865078215642,-50.086569847444295,-59.748573154734096
1.3868090370466828,-54.02396321820653,-22.99043576474319,-36.4952691563414,-42.6651482049889,-42.488482179910875,-31.764826404478054,-20.19911875969054,-46.955596953347865,-45.39526109052212,-52.709715788135696,-7.509524675514921,-32.18908301917106,-44.83765301697244,-48.04020689543386
1.3907155413763919,-48.6194554103324,-17.43559677084645,-24.36126453695712,-27.401624126142877,-39.004946551166235,-20.259595406356752,-17.239223180232806,-30.43816791804919,-35.66719436149081,-48.34064072081685,1.4459404017581434,-19.696683450336877,-50.638984298506244,-25.843540971609954
1.3946220457061007,-22.208910572754313,0.39541780832749573,-8.62889995927068,-20.1802068006477,-18.9105345231158,-17.615670170588963,-4.3433385411601755,-19.05250946697723,-25.55788957354137,-25.18102462145454,-17.455974784993426,-14.865061039512042,-28.036952664347552,-5.213327496775496
1.3985285500358098,-9.796077561357851,13.893955251710434,7.234193968182334,1.4214016138796834,2.2681460635707102,-6.45621043009738,-8.825397142433737,7.168470138510676,2.638996103105595,1.632623645472453,-6.374982251544323,-13.440196074539486,-7.510608303596299,20.01480628384001
1.4024350543655186,9.590059562215284,16.95213271661984,21.83165493069813,21.79905141817662,5.226824560528673,7.998099622433374,3.0127116484055154,12.78877649374792,16.729186039796343,45.349308782120936,-12.883986520752787,-7.600451071712123,-0.19246841289208305,30.413177789261084
1.4063415586952277,20.59654491151987,27.37088363568808,30.305180027364372,44.84696020458814,20.268620822445897,23.085581087037447,8.186815549913822,40.77374108774083,29.723126814036135,59.88377153508111,-6.490224598746158,4.886634409147699,18.281080257227877,51.28537729084898
1.4102480630249365,44.530867755776725,30.256515610664945,39.69584175656083,44.696482204219926,28.36176703112692,13.604321141379613,14.750218765566789,26.54853110556407,45.06304909396283,66.95303444298509,-8.210481329914813,7.490737973304794,22.518209262424055,48.705553351393036
1.4141545673546456,25.905072809493674,26.87665594678754,41.29641804806067,40.01925527933208,21.383538416487863,17.04660531696761,10.230378571753032,43.27807141306212,40.83190473028592,64.3914177595382,-21.5896003943052,0.877226131349639,21.906084224355993,42.03887903473913
1.4180610716843545,25.26367401934432,13.860222173814156,29.834537977888694,52.59351405432935,9.691557991992578,18.352038901390785,22.402996183344094,16.129148170727753,28.07881998979355,44.794783026205614,-3.8657821630909615,-15.619628845432166,2.5284364273482787,26.99810350403209
1.4219675760140635,19.13396032525754,8.027203377188862,16.666831189699682,23.61782493976636,-8.54258947751936,11.371806887074756,13.840907283649342,4.334721830625683,16.881535793377132,19.625538034673692,-6.012526397842445,-15.862542092407923,1.5310623307967202,2.157982622461115
1.4258740803437724,-12.485637029690377,0.3375191412300014,0.6792639311783919,15.839306161353075,-21.44643010545502,4.852546748991568,2.2056663905497493,-4.572695035489181,0.3919643980963742,1.8043197180887445,2.922715632367435,-19.84288856014797,-15.304426062579685,-8.780430610018527
1.4297805846734815,-18.537507324123823,-5.251274617527889,-2.2305036960206097,-8.6744116462658,-29.554332064731696,-11.211155162694437,-0.36048299871470246,-17.128406270408213,-28.839147331827874,-35.3388620102399,-3.7724493764521725,-15.86187651210091,-26.826855463034516,-13.873080942733187
1.4336870890031905,-14.648471462203496,-5.673917254649863,-11.232075634769412,-13.57514984253018,-21.27109546233988,-19.193680177417818,-3.67950336156502,-22.42590497192054,-23.81809321009124,-39.60055735721057,-0.15054791134013445,-17.509914396714475,-22.448235069441097,-23.326211774903
1.4375935933328994,-21.110942634091586,-6.424703721746887,-20.687177457629133,-17.39026253252653,-5.475095022970725,-6.223343820233802,-11.09959152304032,-19.80869088742596,-21.55596115814469,-31.22213256211952,4.5430457176445485,6.120716316281212,-13.529502289363894,-6.291051694279069
1.4415000976626084,-1.2987430907512838,-10.743578246016018,-14.183791469595928,-22.421253972342733,6.626026234157493,0.46748582044748854,-1.1737380522851684,5.56453470272099,-16.993551943724682,-22.61975663973016,27.51579158520869,19.116544713731187,4.308659182267532,-0.9108415086487205
1.4454066019923173,11.39511911406622,9.416666608575362,-6.657564643293005,-13.639671201961614,39.1311710385146,11.166634815646809,28.909431385068558,29.372003241603778,5.350374321986151,-9.472402163427866,35.49795973843599,48.455914195377495,29.076252626285594,19.34621942207734
1.4493131063220264,27.993750213273966,29.156754587162318,4.067352296972642,17.216523027170066,54.307341770753986,26.963951908644106,35.15457988323153,33.640395735778625,22.160604783322352,10.476233122747864,59.71845736443788,67.2554518640547,46.78858061287285,37.744229391124875
1.4532196106517352,55.06968817781586,34.22278913003089,28.20398297547183,20.194493587138453,68.81573034636709,40.78775023053234,39.96642289775905,39.392097818301615,44.83777043898768,19.24854934477776,58.52832585488372,70.06279055550503,60.132397553665186,47.93695853926299
1.4571261149814443,60.052532496305474,21.58732256042076,28.586512553977617,35.38935733122349,58.635985544650076,43.517172917366395,36.91305550446813,52.075404407011206,40.45539199365146,37.410254409311264,40.548851657223565,67.93649059104928,65.93189952669395,42.23333486514083
1.4610326193111531,48.687071277531494,9.490051097961487,18.897913619988227,30.056852020914615,50.97486716840487,37.426548964357124,32.470833850079586,36.909228433816665,33.058677268699746,36.71403259814788,37.15158337494522,42.64269236894292,49.92826852423786,34.48541878171669
1.4649391236408622,26.992451488207177,-11.542736850588476,13.41139227376116,18.783239205927675,22.33298681566464,20.993521419743452,10.913108082340006,12.541854957263164,18.400882228748475,7.494575320138878,33.174036068853205,0.36203782672574647,31.831508263463927,0.1979998904799406
1.468845627970571,-5.059360236007761,-34.46711388752374,-7.393290185957647,5.204204653387665,-13.553124920657073,-9.61362315319746,-10.928335479903712,-20.663106880845355,-4.239998794705991,-11.635088784367257,-11.377323075987663,-21.878889245655294,-11.059968681765639,-30.713547149147622
1.4727521323002801,-35.29898262060733,-65.08213907773383,-32.985178851579214,-28.936162362080726,-56.156944151126915,-33.90347713659249,-53.68464301891204,-48.68511502512948,-34.35209892581591,-34.993032851474354,-45.685544160538704,-57.36489161950625,-40.92920482500232,-59.53133782900333
1.476658636629989,-72.42690534150525,-81.34494096835823,-63.456525621168154,-63.097086479788004,-89.20597065488482,-75.38592437587688,-61.94864403017447,-83.58447577254935,-72.97048331863833,-47.50104938564393,-81.82980174882155,-86.61497337640091,-79.92206059353362,-77.64191250798677
1.480565140959698,-87.59853053454864,-83.49589566500906,-72.26206858749026,-77.30517868761464,-108.014904366024,-87.9973206183679,-88.47238700912162,-81.74874915764121,-80.42587254322295,-70.30629205528236,-88.90538540026513,-103.98625996162755,-94.52337673522386,-81.6599237910865
1.484471645289407,-90.07946321224742,-78.74332110790243,-73.07386305314488,-72.76962501029284,-100.59106155371403,-90.43936364768285,-89.57670552231215,-90.35181799189861,-92.18108812002345,-77.15806935462024,-87.19036249177343,-93.9226629936686,-105.95154827750616,-74.87511658329369
1.488378149619116,-82.91960630469377,-43.062433905685346,-61.13031515056385,-77.03783274774621,-92.38576975498046,-78.43035656727582,-76.61122491188712,-62.16496270622159,-74.03500744075664,-59.583332264614384,-80.22865914950202,-79.09959551600012,-82.75136453747011,-44.192958599429694
1.4922846539488248,-55.076673691325375,-9.506467286752281,-34.97361662974333,-37.78777136656081,-49.09497821995929,-37.87590954468406,-36.470307707482405,-25.422548900407353,-36.838261616377494,-31.076079408023446,-44.9227466484423,-48.36065213580408,-62.82577921278683,-6.368166169990764
1.4961911582785339,-6.037188876821562,33.80692913339125,-0.71401425458658,-1.781429960120509,-7.069921528254024,-8.294889611177709,-9.189961646160786,14.182063597504674,2.832333188999654,14.83543859276676,-13.985294189387915,-2.7115292677944467,-24.94607226576615,23.4085250805822
1.5000976626082427,30.213560120718896,65.76213391523592,44.50009246057353,29.32424735943126,40.76781202160011,23.628416751778104,39.25251050724468,58.48270542416036,39.99195123187732,46.0776839323416,34.86466541032619,44.65286176995933,31.821162463251177,59.374008675044784
1.5040041669379518,64.8245828022334,103.04311868702864,73.17695815869916,71.86935655797517,70.61252739370045,77.06679036363685,76.38675482914621,89.28796676931836,82.88475513904041,80.32735409830259,64.22329314769135,76.53777005405392,62.36112214252673,100.51264714741953
1.5079106712676609,84.61509648835401,105.70646635216568,97.53502707504404,103.58859160971895,91.60909230307381,82.3891524216202,102.27428894456382,106.57849185343333,98.99830529859858,91.0859026174045,78.48956368180718,92.32145144278245,89.1358480114191,112.08311704754445
1.5118171755973697,94.36939313868274,93.78340416938117,110.08871943103075,107.3877203022063,93.16983284674465,92.48371944329111,105.35123332060121,91.26379585109548,107.41959934713539,101.25206681716678,92.3026991080685,90.09023126349325,90.4381036671707,87.79443606254692
1.5157236799270788,102.10847104501461,71.39376511373854,89.63122657590729,101.89880139558775,77.92252768070597,92.57163296933398,92.69621094026971,78.1683062929587,85.83343199456121,84.83604561413904,83.5366724563326,74.37594387630139,84.22048996439577,65.25438998300197
1.5196301842567876,68.82323051996966,24.29349898535556,63.62525022768092,54.88486325741782,47.308164548965735,71.6397856450268,58.73952303246321,45.966853228488056,48.937548673180224,51.43434726670983,57.72859070986102,42.10913494627726,55.952773562251764,31.797273044101505
1.5235366885864967,29.600296894177443,-11.657599948471479,13.867211334852101,21.506532509195527,17.031613556995143,37.555713743069425,23.113779963145063,14.0501552367348,14.479658868101335,16.110689793604493,28.066093376367995,3.13329313525581,22.314514190512185,-1.9308695217755167
1.5274431929162056,5.0351095403674355,-51.401784027264966,-29.205483017420683,-19.404769826522546,-10.287918968888151,-14.591499751813256,-16.894795239378894,-25.46719098363117,-21.76046102502493,-13.149747173436865,-17.259767986319723,-17.96053772654417,-6.019536196130787,-34.41146507036805
1.5313496972459146,-27.696289968867625,-75.59311185581237,-57.22280635849042,-42.129662867807596,-33.697977481520475,-36.75484329378124,-37.61991747469249,-55.390336406300904,-49.032629428285134,-44.76321356487783,-38.87299337712321,-37.633983382071634,-38.34339361965654,-52.360276486858034
1.5352562015756235,-55.279925807092525,-78.6918654342123,-84.9166700425689,-68.11613857070725,-43.46475339786997,-59.42954579271941,-57.522550475273476,-57.42568046628084,-62.62146730960205,-71.47493887534822,-55.34602959670052,-40.46601702061297,-45.29213216653261,-74.85083495002382
1.5391627059053326,-62.3699330590614,-75.75278595107281,-95.734064010357,-85.16766793580292,-48.71674725667836,-73.13137760259954,-70.78320664799797,-73.34435171139464,-69.78430011778127,-77.39166677201733,-55.934771618135215,-44.73721995544882,-43.89305526822692,-72.53946324237974
1.5430692102350414,-52.891318035577015,-53.736391668252224,-76.8067214639754,-75.74656345205729,-31.8678590861285,-62.951740174436054,-52.34389781513756,-50.11588252093448,-57.117325577784555,-66.96335469684463,-42.24600405743276,-32.6856228339415,-38.93605074571862,-57.25254582784268
1.5469757145647505,-41.592437344885624,-35.91146059292886,-55.12535553440426,-59.7666752949472,-27.981652218834082,-47.30944028796821,-36.816390364667186,-32.068969272009895,-47.60506805191061,-51.076615534509806,-18.45777144481466,-6.865298405277009,-25.23641309105175,-36.29973896382057
1.5508822188944593,-6.099667426622839,-0.6142916617234833,-22.77896426682499,-26.432147654046986,-13.057632352469165,-14.84314829122472,-22.53585281151573,-11.816527369546671,-20.989641798340127,-29.23918630339814,-5.702743121133102,14.40203636035559,-17.398139645605433,-15.657661846796753
1.5547887232241684,-5.568270092046474,19.67916765106481,5.33494012624941,-5.217786450914669,5.398767539990199,7.170686115668744,4.401677220485684,2.067959924975013,-8.267269581292792,-58.686207140098745,14.79861083544744,14.320872332019935,9.097114093100995,5.392481119346539
1.5586952275538772,2.3738820445716975,35.350385852753526,25.661033649523873,11.368437890832428,10.554340314237766,11.975816886224289,21.535381308823148,12.584714875501628,10.297728549170149,2.3730093785131596,43.5107821944155,17.782254879741696,6.184320872767381,10.915989478812417
1.5626017318835863,17.80539344256089,36.21811941739896,34.67340818389993,23.779244486693504,16.230331020589865,19.54402157427824,29.506409090187823,17.40077358306127,26.220713731912888,7.968385254239346,22.915116117301473,12.390941374859668,4.431693563658218,17.648268247807987
1.5665082362132952,4.8696152424386945,34.511572940651604,38.8950007166385,31.29279578541441,-1.1442348213356983,21.69852389623959,16.594192577576887,15.645380663092016,21.060778876275805,25.17405957805205,18.10742637237609,7.1204139383638285,1.858696657276,15.897696819970237
1.5704147405430042,5.1949756046453945,18.257967998783307,29.384886618690366,26.063139036646046,-1.9712858533980926,15.071128495625231,5.665149100727823,36.58711922441569,20.39251890479212,22.97265113233627,-4.441673605646846,-13.600006499257226,-13.19134936227805,19.506537712511083
1.5743212448727133,3.489714007637014,-5.030278285786952,20.64158836021927,17.365550262374864,-24.10357573776957,-1.1302622243906217,-0.5837904043670745,-5.661847398216079,7.082703857470644,25.64872471187013,-28.644035542046907,-27.91540881402338,-8.082967101974134,7.938917534952513
1.5782277492024221,-4.213297839966765,-17.974726255964338,18.401656810451225,11.45301099291426,-23.362970430417747,-22.26497600365412,-25.016079614911078,-10.722130147219655,1.6121612999143502,25.461086690412166,-33.49435135483474,-32.59067357027055,-22.21171707057456,15.554503412256004
1.5821342535321312,-16.24272935243576,-18.201149246458026,0.33358040815610535,9.12003857716537,-17.695489429260764,-23.357388107308005,-39.15488498933526,-0.16124325959992802,-0.23408879049157116,27.471281272567712,-44.75142710935236,-23.158322536307267,-21.35611301480236,5.961322184631295
1.58604075786184,-8.505143384293632,-18.18017035247839,-8.545370962802483,-3.968160816135161,-30.109096664448373,-26.08831665444857,-33.28464179188455,-8.560095561492172,-5.046672378300881,21.70021080443137,-44.235545054938626,-35.538371758192554,-6.470387231102636,-31.719497322230808
1.5899472621915491,-6.302347901551929,0.07408460890771451,-3.8114200529286784,-2.8981358739762837,-7.965205154390116,-21.221021107572433,-24.45115838481804,6.2661950877986445,9.06215304910494,22.107940351730452,-32.95130726296985,-20.71651336023028,-15.123831981504972,11.13185590826512
1.593853766521258,-1.1950059535141833,11.806914708017484,7.847336379351556,10.307334075960451,12.046111677838502,-7.20599723480989,7.017201713143882,6.300710034107002,16.008169675894905,12.086647736839943,-6.878007967133155,2.855454560231965,1.0585559170632268,18.088283862666643
1.597760270850967,4.6813409070106005,24.724444955188723,10.866241278066685,5.7501658057017675,16.967568321454618,11.484156280398551,18.676961995048732,21.42197984020755,16.69833528427146,0.14211594877148848,20.883266363465818,26.69248863490162,17.45883273435428,21.535625580670278
1.601666775180676,19.044284104173272,33.38697219974295,30.121106718270983,10.015997448911499,20.84964539592036,23.90889049365871,37.3072512608297,32.711269648649,16.556670390429993,-3.2822231775267507,39.76296658765515,35.68997230095782,20.11288120989261,17.699313065727964
1.605573279510385,15.243652918224607,37.94077861204963,24.3638728707245,25.23860080428233,40.56331380994078,42.424180432743235,42.085514771592976,25.13165406508361,20.17140409229822,-12.22055371938946,59.45024211773859,54.992841734591444,28.522923502172148,11.901330918065756
1.6094797838400938,27.86137996067161,29.30921800186909,23.08229258654952,18.92694594565598,36.42974214815454,40.27289548462114,48.48748373557146,43.827736212401916,13.696030182423245,-0.2369478055029779,64.01141965941395,47.88783954497334,34.65444086511868,8.815589954921041
1.613386288169803,29.047181045705926,29.33952995107697,17.726560245421336,14.46354488251529,37.6342962801768,32.62442997368268,44.45427372357538,35.64047927678254,17.456278950812436,-10.597625189967728,66.9968055156458,45.28946057565713,33.8470432791521,1.8871424352513753
1.6172927924995117,33.83675795217978,13.275983241652838,8.822109255815803,14.641005382505082,32.39936704383358,27.390969769668306,40.17865259615173,17.610094103853353,10.02477329490577,-7.451807615768486,44.56931151513861,41.86758834211225,25.26213300102435,-0.5504755313884457
1.6211992968292208,22.306788632946162,-5.46151892301396,-1.0346454256526354,7.3806681975216115,16.682239871129134,23.78357820528393,23.648741834276322,10.45272160332486,0.6846054782119726,-11.699715301270821,29.70798113743957,24.631992263609106,27.220342186968526,3.181381554505074
1.6251058011589297,9.05144119475845,-5.456786531116272,-16.631238233653306,-4.934363023983613,29.0211745249603,-4.35109883478723,0.18101077587791725,-5.624780472977273,7.094288433508314,6.57893137060038,16.21440945400005,3.1153412772916536,21.734302959437905,3.977876400979312
1.6290123054886387,6.007616783039094,-39.30309219040868,-20.20162837382954,-11.83100008423874,12.228315843345428,-7.249400094310371,-12.505978935336355,-10.103284519108525,-8.991883586909427,6.055679724826165,-10.661793041701413,-3.174593003121677,12.310477674323446,-10.129202528821251
1.6329188098183476,-14.505927591786318,-44.54493840669177,-23.31267762512174,-12.54863664164936,-0.4501400169048053,-25.192676722953113,-41.467431927566665,56.77269118037124,-14.586427281914366,-2.134079433814154,-33.22702629539988,-5.361245920366097,1.2555736549328234,-15.365164228117926
1.6368253141480567,-14.07813691376446,-51.61018191131108,-22.966558046175052,-23.755497707482608,-19.673346051603133,-30.262877293989742,-40.36529692409542,-27.703975896529357,-24.55676068701993,-1.5818138811760591,-37.434117761588624,-30.538239225168578,-9.352813949226665,-20.460075364688652
1.6407318184777655,-23.13303847131364,-45.07776624026747,-31.240635498719733,-26.65343402926846,-33.40644618688284,-42.6084734547285,-48.5616533361159,-46.785854899379586,-31.105246053415623,-10.930875344269335,-57.45727563530769,-31.16806357006479,-30.08217784219446,-36.37814209461651
1.6446383228074746,-44.96623767374507,-44.20249261734291,-39.30973682778696,-33.48954368092009,-51.64080144968913,-45.3053495043637,-48.315222513820814,-41.89652497098203,-32.241708733346925,-28.834615910056378,-57.87009923821681,-48.96164282478582,-46.011653904979106,-40.597366503984645
1.6485448271371836,-50.992444621673535,-34.48628323163985,-38.61624068988059,-26.393271949528494,-67.75506179819088,-47.34555866817431,-47.13605359054709,-44.0252912794502,-47.98879677550401,-35.007394202705164,-56.47579560461249,-68.08140140502768,-59.697390530448864,-50.43585179154272
1.6524513314668925,-53.2594578601885,-23.916332826101183,-25.722099982884835,-38.15763785676413,-58.21708819253392,-40.59441731635305,-43.214035803921256,-46.46667448855347,-57.11879997003603,-39.78693465325872,-43.11139283387485,-70.73485298661939,-62.82507809426521,-56.82614726073195
