timestamp,AF3,F7,F3,FC5,T7,P7,O1,O2,P8,T8,FC6,F4,F8,AF4
0.0,23.888655685668304,37.12006764790646,57.48049861014644,61.46795708566426,57.0978602337091,44.421057434896255,60.84151019727745,51.80968867233312,25.858237311962718,45.64315408923137,69.06927589591169,56.708950005183546,46.102521495968126,32.416308522612695
0.003906758692538091,65.51473491603532,72.80874071299955,89.24312725720803,90.83427198607055,133.1789598192709,79.07896018163585,88.17482937374142,80.46280021366172,70.83305153653487,74.00541155540985,91.93209730632135,72.0973951079923,77.80150183422516,61.19306027580713
0.007813517385076182,87.21597672041682,104.16805702727049,93.6476564836557,105.90552244859968,109.31698233694667,89.08343361088541,104.95147828583862,99.14650896290355,93.56985353101965,96.09358815972146,108.10753930975314,100.41306934624218,88.00584150881608,89.34912665010671
0.011720276077614273,107.66180374151548,110.09286252769547,87.48744227717125,95.62131599137966,102.78094621779032,86.07987367607136,84.87518290597664,106.8952412613304,100.84208149576993,94.5027589725286,96.52316509643018,89.09039086643311,89.00524709731101,94.43298003399303
0.015627034770152363,94.04691734958382,89.14879888543692,65.71719307737115,75.36078686036326,82.13809752215774,53.19659546502685,66.47336514221286,68.90584543218617,85.92466820608581,76.29921067181405,77.07165895801512,60.97490416888984,66.9999636133278,73.05356348297073
0.019533793462690456,67.1860315819316,64.77100579189567,32.23266456816927,40.43106508979093,60.75834429960892,21.175920309088177,34.91835122981558,42.33481160206034,69.52158519094532,51.86880526367061,37.717467766481064,50.1457866315402,47.918311018381964,50.66014561401951
0.023440552155228545,25.0277113317608,29.817021049144,-37.662286720374354,3.0800461804616264,16.002048710699313,-3.1055608147018177,-1.2437105257048948,7.186658692408825,37.51314335553233,21.596117625348832,-7.862689405760861,23.56578062837802,16.707566648912817,16.980481756085
0.027347310847766634,-2.5006622941557772,-5.875404690101435,-44.59965370489671,-27.455650289551123,-17.480748775446173,-19.671511568201346,-24.71629053818591,-27.036337453779876,-8.161953553616843,-17.709912469613492,-45.7277019522877,-21.107108804030975,-16.196133748440893,-18.630096558219115
0.03125406954030473,-41.53525004243076,-43.3223312438561,-50.15169309004313,-61.143478513775705,-58.658746988714114,-50.52100991569528,-43.11160825934487,-52.92234849124594,-39.32328028163622,-36.20608077548862,-55.328378885163296,-40.608185652319044,-36.339121761443934,-46.91393750984528
0.03516082823284282,-60.48022234403867,-70.52173110452031,-64.19253681888036,-67.96878634729954,-71.08368563081298,-36.13362146988024,-52.09973531831369,-73.65868026770262,-64.03933978489663,-50.02578657812921,-61.813618630141136,-55.96767152214031,-42.81811922256336,-58.53376315775265
0.03906758692538091,-68.74892137173345,-69.50087741985425,-56.23248853490122,-62.85177229583592,-73.80230671915034,-39.37644914638169,-52.78661537232205,-81.79811521311976,-63.99906203037911,-42.563049750850986,-63.761856215790125,-51.02884088021031,-39.919710408117076,-49.00456597580458
0.042974345617919,-63.27285414715963,-63.35664067424015,-33.09353765082433,-49.51799851907882,-61.98240738419818,-7.829773018312334,-39.89967771643433,-69.44566624670878,-63.570316905270275,-33.69426370391461,-39.00592965033678,-59.46705821547594,-43.736494621514225,-44.2937655253507
0.04688110431045709,-39.54890631525235,-59.23234949956852,-16.200050841176683,-26.282161057849237,-40.51902960150844,7.936953392767666,-55.80825162994424,-51.710344208444674,-37.39680386588235,-40.250328869011994,-34.50565797299815,-43.373029517948325,-24.47889879289837,-12.669783707388042
0.05078786300299518,-25.61716450853133,-24.990683492298064,4.061088995512223,-16.337588431870657,-14.905369091897258,17.91420367253911,-2.666599700153073,-28.515447026533018,-20.738666096580026,-1.656141332455518,-5.371104941465816,-38.21303338044254,-11.444159920145962,10.00197682417314
0.05469462169553327,5.154224236882998,5.793671488131201,26.89235358622293,5.104804107242613,7.877963017083416,14.923244478728332,5.446489223905328,-5.769942001791232,9.405335059944049,-0.5166215119214037,8.489227033004001,-14.909890360974291,-1.8759528635782057,26.82464055819038
0.05860138038807136,14.8844870910884,16.405803041524134,24.25262336408983,11.105987532349483,22.91905177777178,11.504083682148769,19.626209683775784,14.412802289426129,24.36619911127957,21.875612810766192,23.551622112144212,-10.208127501800327,5.346759305818376,30.947783431244197
0.06250813908060945,20.23463169553693,25.77719359885631,31.16778548548514,10.19380196969036,29.04722246079404,5.869309202523918,3.8586884232245033,22.85712531169893,20.652645651120043,12.995904356419539,19.496661014911506,4.528021019112469,12.168599790924038,21.268892481233387
0.06641489777314755,17.827476286643968,21.089618884607,8.348097131130796,10.827600070658479,21.137492778499183,-9.756281846457897,8.729621492528445,20.535042384263775,25.40617007638197,0.1983395626216189,11.206102094161569,5.026457577120907,-0.8286669729502926,5.681668953822745
0.07032165646568564,11.218900829178855,15.383471392544577,-9.574752383154397,11.262350983772897,11.991596954121821,-18.40705743301109,-6.9660201460281375,20.784835557675322,10.226934153989994,-10.646027352504204,-6.351174207243527,8.906838360968734,-2.549344353184061,-9.282934391388572
0.07422841515822373,5.932004797481346,10.225280912472764,-26.078806286589224,6.3563453329752235,-3.880096109608151,-24.454127524458514,-17.66443323436858,15.031134529534285,-5.6040651860353945,-18.82005617618606,-18.28399990925665,12.890229050344804,-12.207754304617623,-27.931850735190586
0.07813517385076182,-13.84243403778926,-3.0861107108288395,-33.844465226780784,2.3112930993795437,-22.3924163982305,-40.29697087294507,-24.303751975646822,12.987909399119207,-17.17921903255577,-21.8132959785197,-26.752950969450936,6.949240896836672,-15.721454999805909,-35.77706419436288
0.0820419325432999,-15.682458397389876,-17.04178729904435,-41.923588471906655,-7.01165248185547,-34.307691970056865,-34.10069844038497,-15.022442791147922,21.949831331723264,-29.657034046366682,-20.520838049340583,-17.624094512137923,14.729868221992097,15.370885762382757,-46.43146664974522
0.085948691235838,-16.575486455700286,-12.05359407315306,-28.717526655745065,3.1353534932371394,-25.123010757135983,-33.430597144085255,-7.498802905615776,4.492708186694957,-20.743076201201507,-25.413125010598314,-14.178710914172505,18.218893664938683,-3.7464762065245676,-37.916879502646
0.08985544992837609,-17.044899601247224,-6.927749583776178,-13.925797563268492,0.1952985696564653,-15.484478233405639,-8.976626672764958,0.08005311834203843,4.8992509390952765,-10.232359913825988,-11.568927329328114,-2.467828685606709,18.739811516133944,-4.738727390618766,-28.02534049616666
0.09376220862091418,0.8726072542478378,10.68670303212474,20.416183367332152,5.321966928974263,3.749016454374887,13.578417033578457,13.68405391636107,6.552803357511662,-3.958764585308252,6.605947322716253,8.434132245276444,25.034096127165004,12.001722440419744,-4.870564301597169
0.09766896731345227,11.534247236690094,15.232235464885937,31.668247055559668,15.689731643281995,18.79259049071493,23.39635204908847,20.986200959156147,16.467289658610753,10.157132256534325,14.453475714105306,25.320451493762842,22.538270303891828,22.463935048015685,20.919276921664604
0.10157572600599037,30.159729911199594,21.911175992359826,45.37641594186508,23.06239338509179,38.89102293236537,44.80448294170767,22.68360538566979,12.09152338861458,20.285917374579103,31.515583021879873,38.13850854436025,15.290576576177628,23.856048329799304,51.31008304639574
0.10548248469852846,39.211041270279715,26.176988901854184,53.9662391137301,16.964576575819326,49.29850064214353,48.37123503660578,34.45267774368515,4.368263870070406,37.71768349049008,38.32539647642185,36.86062223787798,-3.595289202666246,21.06702608313534,63.224216105464635
0.10938924339106654,39.55800766668463,27.260552464002078,23.09580867558578,17.901173848410803,55.86980404266644,56.24908992819347,41.24178500993343,6.998173863058892,50.72575375312754,46.56739736986294,43.57249068620222,0.7236229664115266,30.21331029976628,78.21317479705709
0.11329600208360463,38.80298756309705,13.903489875318558,52.42094309528077,11.94548302219526,40.855837746282575,53.49766435661801,27.22911133428851,7.376808084218995,45.19355768066289,61.33316236937274,30.219928451139666,-6.301740462810231,13.42707189128843,66.43364782967349
0.11720276077614272,34.36191144168425,15.564802639585837,47.34594354705084,6.148792120280602,25.578972563372332,36.88728665277375,17.522163604787565,1.5105870606629859,40.82071724897324,33.968376859657795,19.903618667798263,-1.1934550911182922,23.021136789201485,41.01836965671001
0.12110951946868082,21.66573137981619,12.196479591885286,2.9917959742991425,5.667641402157137,10.061141140667448,85.07229857911467,22.607385282831913,-4.551212926673972,24.94990578256774,48.63343243390803,-50.278633541995305,1.1478362244251863,30.19644313882958,19.80154213673906
0.1250162781612189,2.3431827536952206,9.545200288999695,-8.799263223952524,-3.960488930766724,-13.549071449541726,10.977931996632911,18.901378624207744,0.4493495787097501,11.360671325234065,16.937211527509046,-1.116208333461083,7.04924301615812,23.089585657386376,9.587743853520182
0.128923036853757,-4.814384655535746,-14.257927908754473,-29.703208315030484,-10.941927680342197,-22.434087326791904,4.817091757676415,-0.22924844490241347,-6.769156028471165,-13.249048875417067,3.617161043101948,-23.983633927241197,7.4879975100839316,8.214474510996034,-14.930247197258263
0.1328297955462951,-24.791256374544727,-19.759711329394182,-47.757397587480796,-9.70654819726332,-42.292117375513136,-25.276348747389516,-12.610223708785355,-4.404368064514208,-21.624220741515366,-8.254231921412568,-36.123332521181,-2.080545528501079,-0.971810747037225,-40.94524702823247
0.13673655423883319,-41.2393781350126,-21.413476054161578,-47.591978461661164,-20.473206044059708,-52.48534802700692,-22.757919623787906,-38.86272287583988,-13.11345203155492,-20.867458058836412,-26.875124585330187,-37.17958979441058,-12.51995500766065,-23.758120997514023,-55.64169700269959
0.14064331293137128,-39.39612060318939,-31.106299920328862,-53.93652399478083,-42.295772041332775,-58.705050662625084,-47.25874383295893,-42.52076596635631,-32.39538480520423,-43.75205548271567,-43.20062352680186,-37.00002520846971,-21.151880344741,-36.510237059144316,-56.008636170689336
0.14455007162390937,-43.41438479266669,-46.71211566690036,-52.52098193722063,-46.16935066392375,-54.361085028652994,-55.76713512353984,-51.659548080676835,-28.26139682815186,-50.787034472634836,-47.715263020711916,-46.068668718473766,-27.51754398576913,-49.70662943416455,-56.57509131360462
0.14845683031644746,-50.97579398581028,-42.672281109172154,-44.549744727005795,-46.64405581090607,-43.711197721274424,-70.05414279845338,-57.32913167368174,-30.581253163278525,-56.29831046054452,-69.4662082082004,-50.87976248457766,-43.581456833891195,-60.69868653326281,-48.54901724574908
0.15236358900898556,-48.410448032951145,-41.11375530432583,-41.189597639632225,-52.52476201627502,-30.166528922465332,-63.50731187233954,-63.70975795811608,-42.133108030670066,-48.95718779869931,-64.29894257838467,-55.637741553111454,-58.82430548139205,-70.72208871806924,-39.53177513160904
0.15627034770152365,-47.27379613817163,-36.430771505716635,-14.760936228992044,-50.13694043643726,-23.14045283292394,-53.98824471977889,-41.6594637225334,-33.29118586049515,-48.511304324435365,-66.62899479225447,-29.59441554205658,-53.127881461242254,-69.15614461847906,-33.77094210334422
0.1601771063940617,-22.180974632110726,-30.731564935423627,-4.493526971484517,-27.745340852409043,-10.90983191505217,-37.333483538707604,-38.73886066505476,-23.485762043108778,-34.694356365804424,-44.20414751653715,-9.994604752961354,-37.089243306224496,-40.24204135326862,-9.013144262609956
0.1640838650865998,-12.816879250521993,-13.014991062217144,17.067915028962222,5.666765879673927,15.002593612942174,-3.6720501903725786,2.676034028174385,-6.333435272861955,-18.714982246330795,-14.659306933101265,2.5610198821817773,-25.483597284510672,-19.94630623483916,-4.075455073905518
0.1679906237791379,15.936035956669903,19.035053976055583,32.63905767176226,18.99445999427138,30.85108078545323,20.28847906325305,31.573901869366043,13.704709675234835,-0.24969137114014828,10.006322490043175,35.23338199105034,19.806846530364272,7.3030821784424305,20.767172081851488
0.171897382471676,36.813158536124455,42.465947242089065,58.45948815934776,61.55149471502818,57.664672982624126,44.8719996159398,56.109054429559784,46.39770245391296,24.15944282804972,38.026437298831134,63.41369784453048,51.36212012572275,49.75284571988312,30.469904055447845
0.17580414116421408,64.85248657264026,56.09565972557358,65.22967977593494,72.24431019934856,62.61030998436478,80.05239790039921,87.602506575793,70.25928985168983,58.13250332580892,70.21308309092852,71.309178473005,78.05951533454667,72.33487352874305,47.83541361409739
0.17971089985675218,76.85455554427652,82.39405993162566,58.32007993725107,93.96194417922483,67.32833426648051,77.57874551297562,91.64525841763366,87.91160763441412,69.97100695157195,84.51385021655926,73.29674853437446,90.50596365475914,98.25850471600896,83.9168290209564
0.18361765854929027,74.34471431562245,87.49857497866233,58.7493561395079,96.8666558124803,71.25621935508767,82.15905300826982,87.81046906799692,92.36490438172703,77.65087008782466,77.77652800670606,73.81904574056107,88.18427229409865,96.69637747625104,62.10608033038569
0.18752441724182836,75.56116609586208,75.56380594574031,57.33088289581387,69.98814226180693,62.32331991615367,59.57004765941971,69.40489617190104,78.20693930561566,73.57908564749147,79.47728644964795,50.213938440902886,76.3998343669603,82.22267379010462,48.075252578534574
0.19143117593436645,54.646268522787196,54.21442257767641,31.560117303809722,24.31778883806797,21.2411408697072,33.37015443639784,41.8645391483995,45.13826011506346,59.786461829366715,38.6041425089179,28.96457038267649,56.38427063871921,43.165156567327244,41.499715628517215
0.19533793462690455,27.28010535903248,18.41006187723776,-6.479207818998324,-1.7754151227567654,4.028884219684024,2.7260985345522997,1.176676279995858,10.675086313549304,25.386801838817096,17.634393396034238,-6.150038226362246,9.651593341974213,14.632754145033882,20.46741662880768
0.19924469331944264,-11.078572833291437,-15.984579761354768,-19.332728856821944,-43.2929101657874,-23.453885633375464,-27.859017359136566,-28.620238874461847,-34.95614384599077,-4.261970896989725,-19.113952010345837,-43.32755284395201,-38.971239453043644,-24.1876815897729,-12.039802073578885
0.20315145201198073,-43.30976738017153,-53.64654036120978,-53.54205056408193,-67.85837238148936,-39.97544328749831,-61.062220911376386,-55.40500670829288,-68.1894086966507,-34.311599706068044,-54.22904829342646,-67.28151400704135,-76.52720865679194,-49.2832866540747,-36.3819755531631
0.20705821070451882,-61.71838904386741,-82.30854494583808,-62.261801100099966,-82.81652839628184,-72.15696617764944,-64.1227637900736,-68.93967727086478,-86.20115746805837,-59.13441372594951,-70.85099152484736,-74.54835008733784,-89.65498915228997,-74.89672249209721,-43.55723023685277
0.21096496939705692,-71.85353407322256,-88.61020822077028,-63.378617588303676,-73.86129722611578,-63.35422524278943,-51.4864852241833,-68.69795633368577,-100.3093190573838,-75.70848866496833,-77.24186803786775,-77.17283862223596,-90.100985336999,-66.30809940929917,-50.14537307039027
0.214871728089595,-69.30034568497703,-80.03253473941837,-47.38329592995023,-60.88824244523842,-71.90783670638035,-36.3858020697219,-56.582198837018964,-85.46275548130079,-86.26848951854434,-59.794362524089195,-56.50098051497552,-76.64468896632823,-58.350297917899034,-51.90982569845768
0.21877848678213307,-64.18389129204996,-62.55029891532964,-23.42664704070844,-43.95666968863109,-48.706711851714005,-20.34091672455247,-23.491606133691366,-60.23865979351456,-51.12451957269449,-43.22780305534844,-32.04100757783552,-36.568222431299276,-35.38944468190457,-35.53361808056832
0.22268524547467117,-30.041783888875223,-27.71191274470849,1.0952343291729605,-4.065567374218455,-21.628949920156813,4.257145781926581,4.479458017806319,-19.793550011394203,-32.128865291757805,-15.338601655066533,1.7051944555691718,-25.198012342655094,-8.054780896181693,-8.119429674610146
0.22659200416720926,-7.054777116997899,5.514485288650992,22.23328766414417,24.67718234872463,5.248726427168881,31.131570167336847,23.843092385544008,18.47529775451171,-2.9436406061632985,20.015935371709773,19.38699808796622,5.376808842554425,26.12718396406544,12.449413974411193
0.23049876285974735,23.051342969253096,29.253238715608813,32.37900339874336,42.93338995283242,33.9005065591559,20.309785214743396,38.29443526023487,46.534131572416,22.461469234375148,33.133148209919455,43.794392834233676,30.295498004080912,32.35669561506573,23.432994261521383
0.23440552155228545,37.5247697308286,51.77287819718306,29.889798852253247,60.45653607329265,37.33001300309749,29.630582369363523,24.92581716515276,66.44752022532644,43.860132171009504,46.41925483656837,44.51751620404844,61.38891240647537,39.232325095597524,26.45620025555121
0.23831228024482354,50.390321733264415,64.92697058811535,23.81696653255276,52.24223756793744,46.73328353847835,12.176182218402625,35.0025071855479,63.09301747643517,46.090108865608265,32.306376735431684,37.15006334931609,54.631674662989056,32.614773641439676,17.693738776258904
0.24221903893736163,41.694120640625194,50.00745891370447,5.047466020188661,34.87896086651893,76.91597228652486,-12.416170196030386,-0.006028723300975258,57.00722304779094,35.9648293427473,4.865965666184575,22.279026148612868,47.69310106504915,10.84315352588198,9.72952873318938
0.24612579762989972,14.303830463787824,25.98331646915019,-17.502650378632325,12.874048345015812,5.881038925996856,-32.435075444093414,-20.078397521987057,28.454301689977644,5.794009410365562,-3.8911026323511404,-2.6904982397853185,26.41219858155499,-2.24675605316388,-7.5404273926328855
0.2500325563224378,-7.96058354607586,-5.173024391387729,-27.239445977374665,-13.176792018381011,-10.069558351351237,-51.58971281909195,-27.633680912067828,11.489368009899119,-22.9921321818191,-30.600240017170783,-25.286893567405535,-1.6632287103551564,-52.20728256958057,-22.960040379859304
0.2539393150149759,-16.540195298063416,-24.834981546715873,-43.08447352259839,-30.71595209736714,-32.09117351905888,-52.70533831437882,-38.983018190576665,-11.97976417671758,-29.665559730546484,-41.03784173979499,-37.92438308932575,-16.723461378460826,-38.83690240574012,-44.660858356799956
0.257846073707514,-27.262066305006726,-37.99904443836205,-42.494615292125296,-31.670082926602046,-27.731826365283787,-46.35458666601659,-41.83827722678801,-28.588958325397726,-42.00920014157366,-44.689693320566946,-32.343904383624974,-25.89319246006886,-35.29731071544842,-44.134157179291876
0.2617528324000521,-41.09491656617764,-27.238127047254896,-26.82669014338973,-21.621889152715255,-22.50501372724746,-25.78871044407259,-23.846784234664682,-38.06065562814004,-36.77884560576572,-21.263071883391856,-28.62226040759755,-22.431735208839196,-25.841255167248857,-34.21644398024791
0.2656595910925902,-21.886898452926534,-23.66450460318453,-4.222613876096939,-4.202561576957743,-14.368336304367105,14.447906973097604,17.210011657581205,-16.007647078927068,-26.570525802024534,-18.993034901057182,-1.1267345010141439,-2.6047145957551656,-8.941491538785915,-7.0683347471088105
0.2695663497851283,-3.0318437624020613,-3.772159369955732,35.8907247943074,20.025123684719897,0.12105676233886875,49.21273422476834,29.183632366700653,-12.10082820512432,-0.3342035297947574,21.799543839756286,24.743311257287527,21.675698184674133,23.757738464345568,23.5569491594775
0.27347310847766637,28.85309067367462,19.131523380686012,60.72604216990185,44.05278323471731,39.649120040894175,78.10122073543728,57.985212238736835,6.760137816115344,30.849359543254636,46.41224405120925,49.75987045591724,25.386150514068426,48.70195243146132,55.13346147531094
0.27737986717020446,54.774674530907305,29.465100923583996,87.58956176216665,55.82395980100402,55.055244033024934,77.57040744609749,68.12322990362593,23.510394430783315,61.94639952347094,74.06247942751662,58.35112860251162,37.45205687942982,70.00584872053093,75.84594097457479
0.28128662586274256,73.40603295139212,58.4953850003984,84.48784448656679,52.44849303158474,70.81816828827313,94.057692674242,67.16524682121705,43.43501602421413,74.85224356530378,79.98684354065284,65.83700837513598,45.368346050643275,64.36916436792595,83.70987910164065
0.28519338455528065,72.31795442789952,60.15499437759419,68.41621455698542,54.14589819175306,71.2534932945274,67.49919351131008,60.44967167589704,40.88593872433624,72.68141309315656,72.11518748214873,61.11507269166218,32.42348878131058,56.85123309603484,82.36768417702064
0.28910014324781874,60.36097198184808,40.91983925818101,38.42866051761129,27.352672450392998,46.61210090343474,46.709875532496326,33.96269123033296,24.232045272583967,54.00749708657993,53.887834622954045,31.936231255956095,17.5983910992438,33.283887046230376,67.09315511728627
0.29300690194035683,39.702327595217895,8.815425336903385,5.442752487805038,-2.869932410241927,23.93762077216368,5.071099389248015,5.436113121423507,8.680576191293786,42.20227689600753,18.672998944352535,-5.460028934330984,-3.296107286915948,19.185871590293228,30.850270618652242
0.2969136606328949,2.1613415752914316,-14.482197602172961,-29.16403266607255,-26.721976600475298,-21.43845666721288,-28.55708332662527,-26.67677505954852,-21.79473390930806,-9.7365051736092,-13.903050641978385,-40.2825776542464,-15.800208990850749,-23.865235716215494,-21.32289066401713
0.300820419325433,-39.574741907980936,-45.36856819651157,-81.07194326492399,-43.95011322464121,-52.81949294758857,-54.65771176922209,-58.273341577878796,-44.90067812783978,-38.98561978084978,-52.163831185700396,-69.31645191286847,-38.17169908214211,-57.79057376244613,-66.5331086158949
0.3047271780179711,-72.76152187192044,-72.10988791848796,-87.30369554564108,-68.69505393851318,-91.12047308837073,-79.29467766505135,-71.28682881130435,-57.69371412433662,-65.16899584369219,-66.53688726282323,-91.55328864874204,-56.59341936368101,-65.27441986402604,-72.06991744995572
0.3086339367105092,-87.33749480332109,-82.71999807680892,-94.38879732559049,-61.60503032400883,-88.77164313254163,-83.14395384462715,-75.07909162363951,-64.47039667930413,-77.84566019820355,-84.56259540447782,-90.38410492774443,-51.84478039675208,-71.93886133311106,-92.77766189506372
0.3125406954030473,-89.49914527049637,-75.8716381925449,-76.87142168310285,-69.43954791831999,-88.14270525491382,-86.06722275631375,-72.02696674636725,-57.6485364591221,-86.88853419792663,-69.054572646645,-81.59347197225627,-56.48818378789586,-63.127668281266956,-97.81931513953054
0.31644745409558533,-70.49115155909436,-62.80197529121777,-66.03653277516156,-46.831673787726416,-70.47583042073417,-63.01849306442347,-44.744486249455505,-48.09298564357057,-79.37579988433907,-56.13013768003718,-56.88628380383192,-33.835325692081895,-59.9844382586041,-78.38605345454735
0.3203542127881234,-51.90939655493238,-34.02788473118768,-26.469549930607702,-16.737607352677642,-33.81250224862681,-25.893219056805037,-27.092749134898412,-23.013281619201013,-40.057064686165916,-44.36940074962481,-45.44916018833243,-30.875564464782936,-37.25438036440835,-51.162874025208815
0.3242609714806615,-16.964132619996434,-7.460427941863353,3.2079474215043193,-3.856695738624591,-6.377677611567583,-17.863654976636596,-4.11934878798931,4.0099770349745825,-20.68751568798193,-5.848702890661203,10.732698731701843,-15.832340195869602,-15.920415005236372,-4.74746640548147
0.3281677301731996,16.686029275112745,21.89193183805844,34.58534615360465,25.225908562344678,39.837668234717825,11.704042533508282,13.43507891194091,19.30536768194015,2.0426329039674487,12.370402460816075,38.08810020972821,11.978257037805204,0.1600694004990837,20.05799117145965
0.3320744888657377,45.90599262579393,42.74422985651331,56.859571416945144,48.34946665060341,58.08143269197461,31.998197297953254,26.901553853950844,36.57586192865415,32.716425888517605,26.796502897083787,59.873514910099765,23.616617001068175,26.256179848256664,59.182947566440646
0.3359812475582758,57.81293646884841,56.00003260663463,68.14978819370765,51.741154124345385,83.60148471922183,47.46984398050273,48.720227422290336,53.59800817910121,60.237706283598236,46.36445694511234,64.18072197332715,38.830949487264974,30.947318838808368,59.372014330026374
0.3398880062508139,72.68867122083205,56.74416004027613,62.42413250485909,48.82013071439719,71.62689828301718,49.058249885185504,48.54925610805109,63.790127087373094,65.13623963119949,52.55994442652806,70.92353670166536,39.03833394049685,40.39729401321962,69.82579818188366
0.343794764943352,67.0065293845462,57.86141716057506,47.12631220949025,57.12859430176832,76.5021614960038,50.17984729993614,39.54592292333563,53.911261954636494,60.708367019947424,57.837414440990486,53.60369090770029,49.774143525834525,54.167035147906056,55.461658152089875
0.3477015236358901,43.1655998880225,50.81156425337869,33.17020288491735,56.79056032006645,50.474731138319655,39.54738993295387,49.05998484894001,55.407831830640845,60.26495916875558,46.078834963751,39.94796842591614,51.76352045550899,53.837880501654716,41.50743710961459
0.35160828232842817,44.518787367068,39.77999207895977,26.54840690131723,38.8274076773254,12.820936425498873,32.82938696781966,40.629458424368366,33.072309890539266,36.33538741887108,37.33619540575081,32.79756478113549,55.656566111347274,45.31185778994289,20.52106523434179
0.35551504102096626,25.643869792579743,24.04191827051833,1.0784686593235564,30.459728293063037,2.884947616809204,27.998517406036814,21.079277663992414,28.32759552316071,25.64636638886374,15.261558765202464,15.70466260014548,46.005663342552594,39.181317164394116,15.333023313916835
0.35942179971350435,9.997122811458446,9.830575051648143,-11.29640996710417,5.087654346338345,-15.74967670749796,10.165195487041103,21.73992580926009,11.268625937229295,10.48759109380677,18.6371869232822,-7.961613569759771,25.725078679298022,27.5412752114836,-1.4722485633842028
0.36332855840604245,-4.172890681796101,-10.589390715677279,-18.530364073241177,-2.404404424503669,-20.290436992670553,7.18661286519985,11.243597821024453,-9.916755784146012,0.9258680290146082,1.144085565925641,-13.294605880915247,6.142221461245129,14.513132373627943,-15.435010952737306
0.36723531709858054,-16.413009277474522,-20.71146488470812,-15.944655710275011,-25.16351779670763,-30.65091387599791,-4.2553216296895595,-5.053653706963055,-25.683434188769102,-8.272547993871317,-7.368050308653397,-15.985270257142371,-10.876258824482287,-5.35915263294941,-11.56158230601185
0.37114207579111863,-22.86674643590778,-33.492781253628046,-18.509306868544044,-36.62681231943888,-52.15615329341696,-3.4043181929078523,-25.81061750570627,-49.700337287280874,-21.092915430193457,-9.039702824604412,-37.3126023244039,-39.58989898894405,-28.294224686644565,-12.565596983881033
0.3750488344836567,-38.088138099810834,-39.181774802278966,-25.722038354453403,-50.42345568763472,-30.34091164067134,-14.978934000540004,-36.43981702748789,-55.31301870555742,-19.746013590804512,-32.54142270382637,-32.01422967008843,-52.514200258782644,-42.017152844854465,-7.934150451654473
0.3789555931761948,-33.230243042261904,-39.88815083377216,-24.956514220540704,-48.89462797634388,-25.865222082842553,-18.86912720279681,-52.356134902201774,-48.77352281473463,-37.95186298395031,-35.40305177219321,-47.1168169204048,-80.9679008914791,-47.046163751132845,-8.2072167236248
0.3828623518687329,-36.806816052085,-39.582991481980024,-12.042037712630705,-48.9277849246607,-27.946615499246175,-26.834583181002028,-45.5562987553123,-72.99311389288152,-34.89710619105823,-38.28358669115794,-30.2124557453902,-71.92418691940469,-43.68692884275336,-3.279245839068425
0.386769110561271,-40.10054999812102,-38.37529959859664,-10.320545295946848,-46.92386174173654,-14.327975588841166,-16.81890834446361,-45.07706674167483,-52.38903654053309,-34.921042092485905,-35.217622916837875,-37.762066508978,-63.40294390404136,-40.81420220893469,0.13781701545014524
0.3906758692538091,-27.710664671264418,-33.75690201544759,-11.158813758583804,-30.11589010808291,-19.800736767621352,-22.264309662147035,-31.189813253255558,-33.308835491267416,-33.49288609815658,-26.575839739007137,-18.746910614109083,-39.49132204921241,-40.131114854440625,-10.427268467306398
0.3945826279463472,-16.932978818259222,-19.47919962090523,-9.596380890376293,-12.723644885231243,-14.49278774388008,-15.174602485354082,-12.890419081201394,-18.18656743194089,-23.340841848108283,-20.107266781523617,-13.335886745326338,-17.49995472913476,-11.909071915512078,-10.710814298372876
0.3984893866388853,-5.522159267379063,-4.673179474777912,-4.609185550280233,12.824829161761796,-9.237221849807455,-13.794519521910146,1.9607097837056768,10.895076401515814,-6.306858290618757,1.8444039821119267,8.600504243450992,3.664758357091964,0.2919307594705751,-5.523766329877107
0.40239614533142337,-0.5068247570934625,12.469522878754182,-5.871959547012786,22.741709128284626,2.3623824226628574,3.397527235663247,14.46175008552687,34.07317735250997,-2.2279685136983147,6.469878389411537,12.732352861261658,37.59385482010188,17.33955435602052,-12.523968495821087
0.40630290402396146,16.32844205721681,28.165153546080045,2.351538879013063,45.58532892509852,11.996080384810028,-2.2985385415096857,23.625926459435398,51.05821277909965,1.7381598495706072,13.660004735637788,17.199317282268197,54.059821147374805,31.58838330566217,-13.787422237916305
0.41020966271649956,18.39133351361196,34.74460103483124,5.780958893907623,42.37225936536419,6.613201936182644,1.5865810932070277,27.313415482138797,61.88701902829973,17.43687773719371,10.455427847403952,28.36988274383797,58.96733350544105,28.58042796590256,-16.390385787762472
0.41411642140903765,21.265614421814977,38.027888794226804,-6.87260726149205,40.74274728223114,15.615733772022143,-3.196150808008843,11.296009501144585,50.788632315561394,14.524514290419527,19.03760141863909,15.293661592694793,58.6797548204235,23.344515037714558,-7.564992722006379
0.41802318010157574,14.597480162536412,19.047017966717508,-1.564534903584839,16.337846052303764,16.952464860493752,-12.551344036498314,4.576171621382541,38.0447031163498,13.950981099344997,15.204733272188784,11.373322241534778,32.3760738708573,8.6176903654568,-11.33700601231496
0.42192993879411383,14.12493637047355,23.06001317268064,5.423703683776642,5.789110578486384,10.257276694792228,-22.99028115389306,-10.415784601579164,22.24167275989597,9.2410421968315,-3.5092420093653605,5.630271612346361,11.65983216402146,-11.086984219412603,-5.975632754167776
0.4258366974866519,3.9395577874787553,-1.448200079303878,-4.4809147998083345,-6.979925621893128,15.583843101612942,-17.25032792355918,-20.69451730299935,-4.567677383308056,7.448620654298116,-18.063537190769566,-1.1904674807020745,-14.85657186761913,-21.6743248642963,-6.924275003621004
0.42974345617919,-8.902870861307676,-7.2565250012345315,9.42810391496382,-29.782117227894478,11.067948778897803,-21.516431910377374,-18.983076900562367,-21.681090396033557,-3.5454149222246407,-21.191738170801358,-14.327191975369493,-31.83825065433534,-22.68015823851564,6.751781041500258
0.4336502148717281,-20.77291362099038,-16.952198427584932,8.61774487324748,-11.450224350170815,4.903653626515661,-7.733116447768599,-10.57797024985408,-36.13525321522946,-16.88392232140175,-11.913886812213406,-15.961118402550866,-20.95598767109921,-23.45357754200642,6.656513288561294
0.43755697356426615,-5.897940127802127,-8.397679796716334,10.312584152952821,-17.271514177524118,-0.890358047161584,15.516871704594244,4.8722502330194235,-38.290036638093,-5.0021879566376635,-7.268432786988887,11.253631599213227,-18.535762575307487,-16.39263662314007,22.773398640130218
0.44146373225680424,21.265769375342455,-10.754288589820264,19.94700491282489,3.754882373016488,17.62305802075054,36.7521029829015,26.43001088515618,-28.715509732674413,6.336009084420055,16.251207426807508,18.489499638542746,-20.1982054814424,10.691886890664652,31.098201530203323
0.44537049094934233,18.70749589355907,5.766972794087059,39.581714607018085,22.102200339780367,26.03401691896126,56.48657181527114,41.81764301866812,-5.311883853624584,13.55265822842841,35.98818619270135,30.827129049741593,4.641600971367799,42.6107736171676,38.808216195371436
0.4492772496418804,25.799048421361434,30.21608104187718,37.500292484293865,31.3426929456286,28.81094083431902,65.25198392164359,57.29116403032302,13.98086260842893,35.64442535893805,58.26621716438984,37.728966014905936,24.716338656424995,53.9030640599561,45.78336079528581
0.4531840083344185,41.74352529144728,39.26838341086384,52.341418775670945,50.13062843446434,38.188815408457,70.60868307622455,66.23021381564713,30.135143224084832,48.17455424719542,66.72406532686122,46.94342683654341,48.42219300753932,57.27579621194072,43.79190602409556
0.4570907670269566,32.453852562412365,31.81019835487055,32.06840278420002,44.994980245180194,39.54386542016921,59.16028436599539,61.379462181384625,39.14075868519148,51.76084239208444,62.69265233146275,40.8167107838467,48.61197771219216,62.05075039739087,43.61154365293167
0.4609975257194947,31.718073563399667,23.484361203565527,21.146884585651645,26.788921031699864,26.04157606481632,27.364006760257656,22.581442445784226,27.945264518092255,40.78079478544674,48.1088644031675,20.122703312803797,33.30087912552428,40.33337581670512,34.58882265433675
0.4649042844120328,16.580819645455378,14.250524978458385,-8.613173521157197,7.590590262734183,2.053185717481084,4.1639117189110735,4.054996813049009,20.27860680960821,17.32915131395227,18.25874311953116,-0.9530320387510498,15.701583305173513,5.825503309773139,9.271564508021
0.4688110431045709,-9.712819855276347,-6.68912194630502,-48.01030629659634,-38.56811347338437,-21.482531020243883,-45.69048650685163,-30.878987750680455,-6.701980330886598,-14.069143427325256,-24.12085214494024,-39.225185274820014,-12.294704750556829,-27.555207261138438,-23.34238694408606
0.472717801797109,-44.53107772508488,-31.859251437407565,-58.1686232955362,-56.53320301140478,-45.35067933364675,-71.68882017837468,-75.11450809537433,-43.24156965671493,-43.73549417469862,-59.84789584641048,-56.99839945490902,-42.19386137136998,-58.321305199537406,-48.944555178630395
0.4766245604896471,-64.11845623166458,-63.82452137559645,-86.22116363709489,-80.37163040178851,-91.75253126587717,-94.91314003145555,-95.22168279145744,-56.97104806957722,-71.23385948739725,-87.19832132553216,-87.99370073471626,-71.95915904731166,-81.38493614367431,-74.58376489016365
0.48053131918218517,-83.2400014568158,-78.09860707354169,-96.00721187948939,-86.47597812609249,-86.68702238623592,-106.4059136575291,-110.38618649796688,-85.4558968525495,-83.80456277188742,-102.33485475048191,-86.73926484214995,-83.70335908108966,-106.07892074040353,-88.50748104121845
0.48443807787472326,-89.36931170194805,-89.94621178244714,-77.72934193688324,-77.55226620257012,-79.67581198092307,-98.97636260003429,-88.95878569777449,-69.9197800627037,-98.75202421466784,-99.05431099743042,-79.48685409181618,-76.92406652706978,-97.18740281816447,-84.30661368779081
0.48834483656726135,-80.11567230992883,-62.40241357525009,-52.0339032939694,-51.932107212412895,-63.50381058909985,-59.86434065989937,-64.16384233980007,-55.67606875490379,-85.13690661811421,-78.12054781748735,-58.44020909718205,-54.92214095790016,-67.05884546959209,-61.28743565148555
0.49225159525979945,-46.126307915381076,-47.11179247973955,-13.570968242096178,-8.197628779222002,-35.562468693050356,-17.494044665873545,-32.146158227992174,-26.009379354676632,-62.1639439803185,-41.38733378999527,-10.075689173076174,-24.413105346595003,-46.24346405685938,-42.35223999366882
0.49615835395233754,-8.780848234013796,0.09527981795322127,25.80908664841362,26.06905451181852,-1.4649195646291648,19.473200793454772,20.258493046064324,14.522869001746422,-18.43209346862546,-2.820777749380779,25.860239331627263,14.223298092287362,14.773187681881796,-2.72559237689131
0.5000651126448756,32.74688150147155,43.182197056915456,64.94991386756699,61.022834516687126,60.07378383803311,45.19773769696078,61.371040601779505,46.895341288338734,37.38272359577752,33.63879815287981,77.50356658087708,52.240194762590235,41.09290086650614,33.34345057145281
0.5039718713374137,69.2290819019278,75.78772445857359,88.26600493046168,89.50466776901898,88.29432035736062,79.2034826185096,84.15556121667385,75.0019557421174,70.7928762350675,78.96007726166243,92.07584842823799,84.69894042367449,83.28549527374732,77.66515568590373
0.5078786300299518,93.83222874789996,102.23671997699705,86.38414556221016,101.32783664862562,98.9371593081198,84.53924591850787,96.99183547649719,101.38121202130799,96.44126970235139,100.01437232292004,97.22261292780873,102.09854970861917,88.65595504650344,95.29421549853927
0.5117853887224899,94.23142669399934,99.20561903404146,87.55401864761471,88.7537919553495,110.47510570512914,87.71162770410308,87.69111183264899,99.26621871207001,101.0051296782078,91.36377988316838,83.0466973176156,95.54888598934416,92.54209540099494,92.55027882122673
0.515692147415028,95.3303284537664,95.26356123848817,66.3814283918392,67.23135589177994,83.07692730476151,55.70808695353009,70.90024504132893,73.8015832311988,96.37846239933367,83.7715552258274,62.288733230427226,77.5270830725323,62.702118744168395,72.07423021675902
0.5195989061075661,66.64491807862723,66.90335407170377,30.2559699255674,36.1321358764464,57.124961900406056,30.395902812353185,35.680666511824704,50.74571692637214,69.81273888282863,51.87877201201193,37.571980640688636,54.7328291541795,48.738728339787656,46.114485474500476
0.5235056648001042,36.093654398195405,26.135231292878945,-2.167079102580603,5.8527611400252,11.91021623353122,-2.3160700869120023,9.367607185096809,21.758078981582994,40.43454915846482,16.151372629028348,35.70802261625164,20.18499721099516,19.657035974317953,16.937768309005346
0.5274124234926423,-4.650640197609807,-16.79977919935739,-27.322516792365732,-36.54125317286198,-26.04046881565763,-25.204514618996118,-33.1063621918117,-22.907940452469017,-8.725924488049385,-13.867579214165886,-31.191923215704044,-13.92791059366569,-1.0531892785210406,-16.677593149553108
0.5313191821851804,-41.20993669661789,-48.67993177042988,-55.646999095572305,-51.40562617219852,-62.16663467095613,-36.604669064394585,-49.17172275389892,-52.200285446172145,-45.90435533936167,-37.514324951167225,-60.201929110691935,-55.42092950434084,-33.85301072852905,-45.323167878516564
0.5352259408777185,-61.82531084713496,-68.96434763427486,-61.896887921138244,-71.24105112362493,-72.17958639764244,-35.256362907297365,-54.828499274731975,-71.07450850955111,-62.65116457544699,-42.752362290488705,-72.57274414431312,-48.036259949561206,-43.42809788343429,-57.50510791369829
0.5391326995702566,-58.46111447062903,-64.93744708479916,-62.309688560124336,-58.230121434094585,-64.11796155270585,-35.71695190005646,-48.38952430108047,-69.2080534462267,-62.314356617387425,-49.613386204848176,-66.7899092530802,-53.828414929992675,-44.20492111002537,-53.82555396291787
0.5430394582627946,-52.89543238562651,-68.82447201642357,-37.25743628528887,-59.15265433651312,-59.966198274803205,-10.114393167699976,-26.285052050933974,-73.75590825106674,-62.63252100380037,-42.62125507107817,-78.45243855667783,-55.02049814478014,-37.867686551241135,-41.54637956171504
0.5469462169553327,-37.45196763373881,-54.16765772611877,-8.351680594214047,-35.379178420184445,-25.786819551879997,-8.356177636879316,-14.126025993183084,-56.34288536481431,-42.68208656028607,-15.64177585051873,-22.934623408048484,-39.23228203029801,-29.569017929500504,-20.17805948636746
0.5508529756478708,-22.426671203176603,-24.075911661803776,2.1731133056005936,-9.18131036030874,-13.74301864553735,15.609578810309168,-8.212556695242165,-24.09262213352249,-20.35490837027596,-0.46137656581012054,1.360194505640072,-21.56300496779688,-16.70141571808641,4.00180900000435
0.5547597343404089,-9.85794614267036,1.5425038171683312,21.047236691852994,1.8508426229322468,14.279141544392633,27.73101389238176,13.438416684666375,0.28897471805085484,3.9177737493225795,7.838279328663594,16.721876162459225,-17.939783899526955,-1.5441296046413937,26.193245877548712
0.558666493032947,15.68597824106735,8.30239340486469,28.606343866988,11.533653607437019,27.441837295816974,18.315215416923508,16.563559651827667,13.520114545640919,14.382786782500816,11.999641193263766,19.9583717967769,-15.335083194752945,2.241831571390272,31.93754301922344
0.5625732517254851,25.953075742836667,20.46803090565604,16.721468638702916,20.364957155290583,35.027189473834945,2.9517883811105015,-1.612006612134075,33.62590942593991,26.402977302823214,15.535825096524189,21.92844745372724,4.138199503389098,3.9242059818143966,28.784312911649035
0.5664800104180232,17.777436966029043,18.064000127736392,-6.315152124295526,12.117702647559673,29.52698493500181,-12.373039774868403,0.9528434776913497,24.528539116789435,20.734264103690663,3.7484022655847524,20.21684442539795,18.588710930702284,6.216778638783268,5.924368240932179
0.5703867691105613,9.665556002591195,18.8457644516113,-11.034613381322353,13.541734097292812,8.064760245671152,-20.75202611548829,-2.4595505148272068,21.520233334948657,4.215793091626475,-14.055389365256918,-4.260051789675901,20.816281095764154,-3.7652747931941337,-14.875644906394154
0.5742935278030994,-0.7508668831723424,3.8346240568213528,-32.899664491882135,7.347437571904041,-5.59136926229659,-33.369551781486486,-23.541341510678784,21.800850162779295,-7.098047669243662,-25.952082390440374,-10.77165151441696,16.296526888699773,-6.168401956400684,-34.188929395856725
0.5782002864956375,-12.997211788738637,-8.661871889074781,-42.33509788016642,1.3641529413045692,-17.919161651474752,-31.46259409388235,-16.52448755230686,17.206345145775717,-13.38636758853191,-14.208955164807824,-23.36403154675988,18.304559487628797,-17.97511107195102,-44.36785205721993
0.5821070451881756,-28.49630993036567,-2.717988931720579,-33.07591833927022,-9.815805093299941,-32.67488148307719,-35.92099510706138,-24.63680625417732,6.9646115391910675,-18.34686051479546,-22.84263652810086,-24.44950277960332,17.9311551669918,-7.0302151710086465,-50.19353458060975
0.5860138038807137,-17.385790362107734,-5.963331156791625,-28.609161662807363,1.5867168961086353,-27.10533535508034,-24.147924188752047,-14.63751384094143,13.791963966569623,-24.823290021707802,-25.32080530343744,-9.076213674908882,14.80952400427335,-5.48760132465253,-51.473255379057676
0.5899205625732518,-10.579429754521225,5.475569800456277,-16.55590108141319,8.25808976272373,-11.86752981640298,-1.2921619875201618,-7.087155722487907,5.733281376305773,-11.827064967191106,-12.624680216867306,-2.5566627359610665,22.149136332389396,0.5210745897226161,-30.61781924434184
0.5938273212657899,-4.816261937436228,3.2532833813830253,11.742159661656814,10.169184771016907,5.479651227936569,18.066014186129262,8.668678033287211,12.988803094788636,-8.351469006758261,8.106637417201714,9.538272076623016,12.799365142805986,0.7265934580000746,-8.926499440565323
0.597734079958328,15.69727715073769,23.101868477559847,35.07157275541555,16.521473348845937,24.23097866951515,18.91256283613426,17.775780271494252,11.61453037371033,25.081941493846003,19.33372994144402,30.691814329799964,18.06660194559403,17.285935721542312,24.859990630831913
0.601640838650866,24.830264841523388,25.731143026795337,49.0653708590349,24.865459949809654,39.394682514435125,29.276525526640068,28.16220586437765,3.4045346965851646,33.81496041418225,40.8754763300094,39.31970699667635,0.6962548150111552,18.29180019237537,52.07630830600134
0.6055475973434041,36.78587802402913,30.750240363906425,58.9815940603603,19.992427904339262,49.04537887294046,42.681665818746055,41.10550461526188,-0.3001474208052475,36.375821708153666,38.69746675667068,44.43489284136667,-0.5787265732545817,24.264988031698145,65.69182431335788
0.6094543560359422,27.961729887150213,27.4215244275594,57.13899495139244,24.037237179136334,44.255825543311175,50.53677410262007,39.54881310672649,24.853241008827595,52.483816020194425,37.749141553166794,38.64911498449372,-6.599067436723574,27.490553726180035,67.81573637835992
0.6133611147284803,28.05297925481277,16.017370543147848,55.78939524118634,10.928251029813628,37.52551626975119,52.38140432615846,38.250575952246514,-2.3218594701127655,48.02595941604378,25.745337761893772,38.45589689946171,-2.235934714366656,30.431154611426415,60.03892363360505
0.6172678734210184,30.849262213211293,17.955032574319638,30.57906975082807,7.177509525672342,35.64155329976204,28.685659781606997,40.390665474341716,61.57932491146908,30.611622770304262,31.02509126773754,23.779457742646635,11.270414853319426,31.44538126425412,47.34141322460998
0.6211746321135565,27.915244411646476,4.817009775202543,13.773239520976217,10.218879259740222,11.14322155242759,71.24766286619074,19.398387356506255,-9.292681329096016,14.171070748559202,24.024567548983338,3.9165369827526364,5.704344567409278,20.761579955953806,33.054204156653995
0.6250813908060946,8.186376757562424,3.0575764395013962,-14.39931069577592,-0.11511118759717376,-22.273185486889865,21.86639543745608,7.576721609078539,-9.290540969959292,6.715172032862556,9.298044794404957,-6.982428684227813,8.82496235242028,23.294456158366593,8.185019357865862
0.6289881494986326,-13.447243995229485,-10.186883836098737,-28.974255954317428,-8.678713086899442,-31.60686082113202,3.9988997680488834,4.329246018124358,7.00981380271406,-7.5163441994481435,3.498648683181451,-23.725720803017026,5.413771148701908,35.97564848424777,-14.350136282512423
0.6328949081911707,-15.34810713522118,-18.908109852773006,-44.47572176468252,-13.502384440573485,-36.80739798475831,-18.937320892262246,-7.947283619967508,-8.367644664303034,-20.255290941062313,-13.445805562082963,-27.84384438991377,-2.0256494685368844,3.285549753181165,-38.16264820589561
0.6368016668837088,-32.383481941401044,-24.115099122463686,-51.25206085212821,-22.85934979459606,-38.168828752073125,-35.36302046250279,-33.10871000709852,-17.579471983495566,-29.693632371090793,-32.303319454167976,-33.665899848132305,-8.373660010608628,-15.71079034870112,-50.9622879572695
0.6407084255762469,-29.28375507389078,-34.511741150387145,-60.718270831449125,-35.89053941208723,-48.97860323893124,-51.079608073883364,-29.637825109444577,-13.194113852965405,-42.8155975870709,-34.60972719909647,-52.38627774445373,-20.379407516274775,-31.756430251943016,-66.56003819948607
0.644615184268785,-50.12829507194426,-50.449981157105206,-60.945052384609745,-38.31091653684196,-48.14449403719228,-53.14776430612402,-60.7909244191679,-23.214938737097892,-49.11179042181395,-46.14239696675261,-45.27581574117926,-35.25557358190961,-58.66705763711709,-58.024039238822056
0.648521942961323,-52.990141528813865,-45.55629920426149,-44.535915789179974,-50.194392733018496,-50.323924115486,-59.52518357403236,-61.65473744204412,-34.72106780164808,-47.50677126966386,-64.7430790165605,-47.632175412008415,-50.44277266269259,-67.0537839950729,-57.46518081075641
0.6524287016538611,-51.41742860483805,-41.07828304569355,-29.57140114888771,-60.860093149277034,-37.52707609016167,-72.10398707767847,-67.31175270606539,-39.60591863401283,-59.815358363022824,-55.81786486606485,-49.53186060063082,-56.445686551047686,-75.37429908729526,-38.44000131121122
0.6563354603463992,-37.80185680114043,-41.860636189888375,-25.01424430061612,-44.26487398963266,-24.664995360259354,-58.486504374012966,-60.430022688823485,-39.28024805048481,-49.49631715684212,-54.05857287627298,-24.77078055697293,-52.59294508731219,-55.7616461094843,-22.551256711089145
0.6602422190389373,-28.996108371571854,-30.17070753496533,-5.5873840892986895,-23.34928874085171,-17.84543941538186,-26.920639592587982,-32.60725139615885,-26.25516271651704,-33.23655992777332,-36.09665027779815,-10.899585698708865,-36.72195210637671,-45.646197856780525,-11.261050120013802
0.6641489777314754,-12.115791803205756,-7.682390666005131,8.09964857323558,0.4568786493394953,11.531236125421605,-16.634608732596583,-9.159028316805424,-13.315756285841335,-22.769322789877574,-8.73663947717471,5.204841151591575,-28.476869098424682,-9.568918999794333,5.429430363403233
0.6680557364240135,7.165885475803012,2.462038871041033,41.17425810674079,20.773639487503797,31.46859123356212,16.817797398097632,24.15932319557503,17.475698605189294,6.257726421697223,11.869667497093552,40.147902136779535,16.701179825916476,19.496566113714366,22.69590289849861
0.6719624951165516,32.44952136177162,42.34176373704914,45.364224914291945,55.89104800539763,51.25353434028602,51.21952182327499,63.67238249997194,42.13078740352438,30.204517726390606,42.119953170599196,52.41986517229224,58.871128645037956,34.77447932542484,33.500120444450594
0.6758692538090897,45.83622102435205,59.30319490905387,69.60440662375659,78.18437914693615,64.08491651944806,72.560896438858,82.02814716956053,61.20356269762896,62.72939536454244,64.64338299750456,77.00486545450727,72.25947581668962,82.83298514415881,52.42686832770053
0.6797760125016278,73.14281817472869,81.72543168959123,66.87788640386135,92.50057455987316,61.91558760224008,91.7468963141036,88.79401625272196,90.02558848472206,72.02409466897834,88.54359346217932,73.28788990269857,96.96202513143243,93.14479860154844,60.072983282450444
0.6836827711941659,87.87239307756462,81.79554961652178,66.17678545231472,90.32873545449587,62.38253650236687,73.06366973368824,87.26502591833545,79.13433518151203,71.65266574655205,84.18311366021776,76.54076793420329,96.43319694302328,89.79970829837316,55.2084275078137
0.687589529886704,69.57928275609929,76.85173673066582,46.60565862033807,64.8217281325311,54.432912836327084,62.44697569389197,69.66947489654659,68.6605270568396,77.64095281127507,72.66930499699308,48.51772352363592,74.99676409367491,79.02926525405861,56.72892593225951
0.6914962885792421,59.42644156427632,48.76474310649964,23.37281021067572,33.176391175013926,37.49420936645923,33.17463843819082,33.086386540459614,44.624552675039055,64.24662007560894,48.89230623212299,28.39386767864162,50.834127891696845,50.687273517660586,36.07131867637633
0.6954030472717802,22.909552091239703,13.158533100999549,-4.218894233987941,5.735667508498308,16.067698269436605,14.083695854284244,-1.332605513919662,-0.670489290851437,19.504105026088933,24.890967816135248,-4.350520065638722,10.092941022105787,5.399376930459168,10.6390896774964
0.6993098059643182,-10.955032146241091,-16.884601557252417,-21.130819121312342,-49.46516534885097,-17.693794457253976,-33.82766070785336,-36.091270713470976,-40.706007413669894,-19.11860677896896,-27.440674054638386,-44.02557893968523,-36.68013049399304,-28.2680309600227,-6.633177167928886
0.7032165646568563,-43.659237597792036,-54.9183257138257,-53.62027335275434,-79.63429397550078,-52.03683067710552,-53.87264581547653,-56.60133727599497,-76.77152492956085,-33.14335750018365,-45.2544986534282,-61.631059350063,-66.19397747320976,-54.59777001085468,-23.50871412977982
0.7071233233493944,-70.72239025089405,-80.32616267470208,-57.260350378032946,-88.35946039994526,-69.82516943039927,-52.38210680797334,-76.2781170006231,-88.44265314190008,-63.81005017462356,-79.95081105937355,-68.85260667144314,-88.92994138088775,-83.3592800741503,-43.604598821293735
0.7110300820419325,-76.6870985923705,-96.3880362063025,-62.149474766016795,-87.23055936238781,-69.45792502021749,-54.43958385141441,-70.01343033241238,-96.33522882788535,-81.60506581680364,-64.03310037701416,-75.80367256617203,-98.99033171858036,-63.374644037315065,-40.97430320955932
0.7149368407344706,-78.37214215023543,-77.72143309546365,-44.74729148573446,-67.83897040695649,-62.70023195336752,-34.071772914294876,-43.02171595609172,-79.17247617153446,-65.03545742014413,-65.25261260036406,-66.10815423849574,-78.87423226468714,-48.336426490898454,-49.58479984562639
0.7188435994270087,-55.97579822906679,-56.25689764707356,-28.403730958040477,-47.015618434197535,-49.761436939093656,-16.911045002040026,-28.655805543184645,-65.52771106934213,-47.8517870458423,-32.61349518597791,-34.64151758847846,-58.905854415604544,-59.67782846174659,-30.737082307070285
0.7227503581195468,-32.469724440905935,-27.835803327710646,-8.8068022831707,-12.84594462700029,-18.584192141707067,11.479865027712746,0.9823355399557119,-21.154817085359863,-22.9762814662002,-10.288842282565493,2.11978008036442,-21.703376318266603,-4.567560792597668,-15.50872009939878
0.7266571168120849,-2.714527392841177,8.6716527985975,9.327042816557203,27.158273576107472,10.668492733198912,28.351050791908733,28.71506901222545,9.005415898349394,0.29804654128488395,10.01562249062259,24.02226132363762,19.122378845621363,13.354621626137552,12.498851608687897
0.730563875504623,22.28048221180959,39.866501153533505,23.779587102473393,47.95361131144052,32.99952649316063,38.77923011006869,39.39393954832821,41.09217291753714,21.5888652743874,42.49537945693081,36.44771211075668,36.53150195875383,33.78114850268798,21.51707299711949
0.7344706341971611,45.35596142278631,56.40905055618051,33.01708205029129,58.67918389189267,37.511342325663044,41.162410203588934,32.56453041804557,67.97661755976779,39.42509253342214,40.14912998102961,41.19137311713923,54.486798634351885,40.76130056399729,29.260072705350357
0.7383773928896992,47.999749518256365,54.01095568260909,29.407517558625806,52.24555244581633,40.59039500182769,13.06306850074808,36.0567444787425,62.388538830121384,49.71374496898878,38.570635752269226,38.11877913956705,50.22914154986925,25.011963147973997,28.051989380702512
0.7422841515822373,26.375060362931762,43.17628999745071,9.16913616779022,41.866946266913104,31.07048716774819,-3.214615428624411,5.603550523335579,51.16470337663034,33.28889490658775,15.213224740605833,27.007253688225564,34.09487596244605,9.527833528202894,3.7457258364353905
0.7461909102747754,21.458873365797306,15.077527503420583,-6.414449607159289,3.296336819036325,7.3783307242599365,-35.97482555065869,-23.307378817068056,37.045137283523694,16.571371023884062,-4.601105358558405,-7.495617885806139,19.448948410904503,-4.139815728686648,-13.834859014423342
0.7500976689673134,-6.105572612310886,0.733041616089146,-32.03928930494426,-18.439893408052615,-8.81687569448421,-53.776178734224644,-36.15614775850854,2.45652483123593,-16.560750518501433,-31.242593876933974,-23.44564091437023,-4.287257772783568,-28.89999905538667,-30.145727780742643
0.7540044276598515,-21.201940787307116,-9.542273582757936,-38.663585289477446,-27.419614957738382,-28.456654329488956,-55.53407674643541,-33.900640253301994,-14.494625824427194,-30.200923074414945,-42.16413178159591,-34.27229028561496,-15.391439037872493,-34.228819531680635,-45.98063827917999
0.7579111863523896,-42.45435401017936,-34.30189444056726,-41.96210008835764,-36.94383771083348,-25.527054112440062,-53.416913352754065,-36.338883572714415,-30.73534205395351,-34.60347420811277,-36.22433954274725,-36.56577036565489,-21.00921444605971,-40.32732326116937,-44.37284506730242
0.7618179450449277,-40.98094017430277,-39.77905190838463,-21.388953919189408,-26.52584603034593,-32.22183967037252,-24.432993523398153,-28.587033368881638,-35.53016362881137,-37.59706255252722,-30.676996614066912,-20.391125254794645,-15.21292804151245,-22.576979947570646,-34.081344815574255
0.7657247037374658,-27.447942883062616,-21.3448063520552,-3.817135129824891,-13.292896457550125,-15.370779439778499,2.9881697479490983,-1.0282975062135549,-23.961821021002496,-36.42663295458792,-7.397687061179968,5.792697027661707,-12.998450944847608,1.3063943398528883,-18.230135050170382
0.7696314624300039,0.3532044321837422,-6.06158598507516,34.657228108813506,16.433419193844294,14.738683487236436,42.51249785036851,34.20411982867348,-7.66092045168795,5.94540122898454,16.576802563509993,31.17591932521761,14.106997240719188,22.171140134401902,17.6440084182993
0.773538221122542,27.450183644018974,26.745277312265678,61.54321379497828,32.056984133968264,37.571113274704544,76.59666239792266,58.04782252312773,14.994127188848525,32.327285235314385,55.15826894749147,42.54977635864549,17.243288989596017,50.68609558227107,50.81679857715229
0.7774449798150801,48.7587107249404,41.500689683567494,88.73530802039646,52.68184441292874,55.89020292270021,86.0078270160416,57.21098913776609,29.669958608033763,58.38490360190156,66.30229099672651,62.020382496872905,37.27917097474563,69.22990123816321,79.50053635253525
0.7813517385076182,68.2533786801655,57.15954209903479,86.94125652996233,64.19032347983466,72.95352094965436,89.12537770796541,68.12503640947182,26.99402741843402,70.70723790073778,86.65526935983074,75.20885852313249,46.60273065762633,68.30395800335545,86.02547240540109
0.7852584972001563,64.51955290586054,52.031207083943826,61.168854068752786,44.331800976758416,73.24185301737104,71.36706376203635,56.29296954420251,41.667625290604434,74.55811428157331,73.36625658590155,60.04157566333561,34.86725465033325,56.34756857980726,85.6307345740634
0.7891652558926944,50.08470606778029,32.23366074809573,37.32701339722108,23.496196597815214,48.50698878828466,38.52292961445948,34.4874581643489,25.04128827319585,57.148003046843435,45.08409073830407,20.231981816215345,25.410928047737478,33.63774047552962,57.41180234820575
0.7930720145852325,27.316421125542718,18.336931789630167,-4.037862138544421,4.362748977664448,41.476139346462524,0.2430759412240615,3.9638525326314795,4.597361233273263,25.430270639533227,13.785559607393173,-4.874319263389961,1.6368274019717424,7.341600182357754,23.823409762225932
0.7969787732777706,-10.754896744184656,-18.52160431988472,-44.09140640463745,-42.77779880636931,-19.603572766245968,-35.05710713099666,-30.516691506221996,-12.693958188362542,-10.20820154923498,-18.890934068484842,-30.137566076955473,-15.05499312154167,-25.450277261029736,-8.901189705036849
0.8008855319703087,-42.214381238909034,-42.07026388172454,-50.86832746401691,-57.03023788608816,-47.5384905044515,-55.91849669642823,-56.77057812823471,-41.59652758944716,-31.547758096660893,-52.777999764735405,-67.04883414974559,-31.952046531843614,-45.70175403732304,-58.48757969107423
0.8047922906628467,-77.36714691201549,-60.470455791322294,-81.93202752385425,-75.35350131959686,-95.17250744836304,-79.4568572671648,-76.0724360249264,-66.41717428661386,-66.57090311792678,-78.40551656167268,-85.94677037090598,-54.8837888100722,-64.46294265936538,-78.37865555038152
0.8086990493553848,-85.82327079465624,-80.13337180972462,-84.69685701749265,-86.48163735230852,-99.66477318183661,-80.79403097476889,-86.34189582217695,-62.00208384977214,-87.59178709071573,-86.88235947790915,-78.44606859846658,-57.6386208581053,-71.18871401847177,-101.25287112710602
0.8126058080479229,-89.45155601539113,-80.88644020464996,-87.9354969225996,-69.32495729450176,-78.16184145461465,-72.13499091177088,-71.90547287930342,-49.31640541019591,-76.96934214320046,-72.19074045466029,-72.86278327076164,-57.316766832852714,-82.02457524315619,-110.37122458364512
0.816512566740461,-67.89115943039792,-67.93475528371468,-48.148719503694025,-49.4239636401654,-69.44742910828187,-50.63436881928023,-58.731372662450596,-40.875628821015624,-77.9295258675984,-67.57547807669582,-43.15180313440679,-50.88714921454317,-63.12662795604382,-81.29780806055899
0.8204193254329991,-40.73476294198132,-44.95757316750803,-18.236154581252983,-16.30472923998844,-40.33277618489123,-39.55909670298406,-26.338532508338012,-20.109287860210248,-55.68604957001454,-37.39341562159811,-30.55039162998548,-29.318405979021062,-37.039275703444794,-46.98684881094199
0.8243260841255372,-32.67321167704922,-19.227325303837382,13.544938377162218,-1.217579889044928,1.999399890259699,-7.530159445807133,-5.359069306193851,9.945407787830879,-20.01036338868679,-10.221169619896616,9.286322903767577,-13.893283338957223,-17.3060657656127,-7.7369304880609775
0.8282328428180753,9.588981082303164,22.320794811508925,43.487019186797305,26.625970267059852,38.17183344354653,18.93399776396238,15.989156378007168,28.722476836899816,6.260790580003959,16.11680764197891,42.925068135843624,6.647945067302301,-2.368032796192055,17.265914185613127
0.8321396015106134,45.2717662111898,44.48569883656009,59.5388750331429,48.59600862307171,63.3640776881158,38.81192788829763,32.14066803555482,35.092003520470804,32.55252700368106,39.80213580191852,54.425672740107984,18.5964456110614,27.17982362224255,55.77356220854024
0.8360463602031515,57.34876461477911,31.674099072954597,63.35599070444763,55.06331553565142,74.6676155192767,42.45517469742231,46.51462456116509,52.52466305374602,58.774275977399306,54.325399437888905,64.87212727899711,34.3123995409418,45.35599945050015,56.453821404287844
0.8399531188956896,76.17259619442001,71.82062791182832,69.11607266768615,60.43273036159467,83.12293693784848,55.55515408410251,45.53699643560052,54.223895069032984,58.73683623160482,48.246827500733474,69.86693561645629,49.12772226437084,49.51059733589752,63.77551664705755
0.8438598775882277,71.63139581063214,63.825441600696884,55.50047348876816,60.461010468057964,67.6398170081448,57.96907514497831,24.75939973668998,48.38167400228666,60.092022514729514,56.43886494570444,56.58058705666032,49.35093845453487,50.46653583447337,52.48564454436528
0.8477666362807658,57.12524205021172,53.96098285512983,42.803858632531856,46.762299453097874,53.12993885975518,33.45555501258556,48.663088219542594,45.45743527935202,52.90739962664211,46.64258656145218,43.42206990851842,48.86250590641416,53.81927975994324,38.223444939771596
0.8516733949733039,38.832022714492254,42.9991931470981,17.15226726836931,33.073863887230395,33.269526484187914,33.43439044141344,44.58261222586334,35.256637049431184,38.75347110166836,45.179946443653094,22.755292924054398,46.85841307474141,48.620124915280385,24.683489575187068
0.855580153665842,20.69203431764448,20.54048699672742,1.977022110773679,25.988263518227043,8.156987027752216,24.304995513835188,25.43951144348654,28.613900862208077,30.76149730995909,25.75792004699942,11.291478591846476,37.8348707900215,37.42124035843908,-2.6006435067675566
0.85948691235838,-1.7752477986992563,6.563064857477919,0.1639623092958864,10.143629464149452,-7.106268533659676,11.428990380318666,20.518695400174444,10.517709592156146,19.6957900999029,8.518714795668322,-12.352213223030137,32.50760002772598,31.56228936080425,-1.7438393465074187
0.8633936710509181,2.5023423772253395,40.15479399006321,-17.828817852893522,6.381127615336183,-20.489165011617082,-4.325343049383765,4.329460509370773,-8.286830749513324,-3.0915125308007187,5.279958211031256,-7.928696110763683,12.232143668124237,22.914887358189887,-3.311223882840231
0.8673004297434562,-19.969047183906184,-14.337097371801232,-13.093699156058928,-20.025611319270247,-36.61785295083874,-4.809044419174407,-12.162373831318806,-22.474131578518538,-3.7853359714944714,-3.1110596705881104,-27.061466103495047,-15.997886750697301,-11.997978604473735,-12.713111565741041
0.8712071884359943,-27.70897758842486,-34.303180432322065,-16.724280967821432,-38.295234374727,-32.1684599488019,-15.060921921269113,-31.8099305137607,-38.54229827630905,-14.367920912472943,-20.3655941424677,-37.102726317633035,-30.75162722465442,-25.05049551531371,-9.27639282040515
0.8751139471285323,-14.089871359014616,-40.6469295916876,-21.977317538402076,-38.65094492979464,-29.396287218050627,-22.645478407661187,-31.588913954348072,-61.591400980919914,-16.037921462857867,-22.319877028463143,-36.20993799844317,-51.08944130639334,-32.08340692006676,-9.888175242055697
0.8790207058210704,-43.66409678238588,-52.65312522073196,-19.71439240253443,-57.248103342244676,-16.935645544308688,-23.90549059952658,-51.47549742086915,-67.6819956187986,-29.341458491448275,-34.142428729438066,-31.816882694885564,-70.37704723288032,-47.30245440677314,-12.702283998069696
0.8829274645136085,-36.75628609507784,-51.0772636491439,-16.909673443378235,-45.602190723723105,-24.527782959544176,-26.450269567824687,-51.0179194034813,-63.7165130991418,-25.732970223434656,-41.23546296216478,-38.29287580212103,-81.93511765189271,-58.594269738094674,-1.9455096769576463
0.8868342232061466,-37.237741518803645,-42.21331026286233,-20.750573604696875,-51.03688398271235,-24.93060416481038,-15.667294194837282,-31.95238002853911,-46.44279576837479,-38.74240020515186,-36.70438309346577,-26.678748524784236,-69.1670835153767,-48.37124153655919,-11.553020870253043
0.8907409818986847,-26.95392767667668,-28.762855523268556,-20.42315421465678,-21.883927408817264,-20.526463923639604,-21.103779731705092,-31.520996109502033,-31.167652831909376,-31.674601622829943,-20.22869085161656,-15.442004121552475,-50.291451044536814,-44.388759536677725,-8.491277831054466
0.8946477405912228,-19.44721671364829,-17.523492041048915,-21.70288693062499,-5.823184991326706,-12.72496260156266,-14.698105400171777,-7.062352740668091,-7.643461892477132,-16.66371005118264,-23.05551836231204,-6.763351356033999,-24.231578384625735,-21.14897716906779,-15.127669317732284
0.8985544992837609,-2.6338545466910066,-4.1100846350312885,-1.0077485838363653,6.755377119108688,-5.864141701835518,-3.4860104457741397,2.6890902006922897,16.473640702542536,-17.44372341295641,5.088803532225912,-2.833651326487022,5.734947552995661,2.664204947283561,-19.42285181915922
0.902461257976299,10.502694263465331,13.314346106158371,-8.687856107989603,20.177518586962957,3.833936303874026,6.613396924618563,27.75609486681369,44.96151871883161,7.986985955359428,12.604573413216372,14.381528755658668,38.16849008487523,18.237458427217614,-17.515988291380303
0.906368016668837,16.824426452081564,39.88084269518102,-2.1422111025533757,37.582036658191946,3.9203659852926513,3.2892360956942177,21.900643984689466,50.10163429949176,11.353542874979185,6.770059709705082,10.553009349881382,52.24358975753289,24.295557088813425,-17.197210109802242
0.9102747753613751,26.122858954292315,34.307564038039956,6.764355833118945,39.17211473959345,15.57501823994632,0.680363461185844,21.122792915509304,64.21967178591893,20.84833853623505,12.659180708770043,19.352624004778658,57.522505106847795,34.603293394184476,18.348313650413814
0.9141815340539132,31.295544537320993,24.300433586124868,7.791291015063229,35.78649996606038,12.14424495221794,1.6478164560015411,12.100054833686372,55.496433278409384,12.359205685421117,14.401365730650323,13.60974472264878,59.0794501273702,28.60035173864835,-5.381436396967902
0.9180882927464513,20.995500574617797,32.183709764573976,2.5232160403316377,20.35292404429476,15.7784469002647,-11.124751270445957,-7.700733453273301,44.26468731835539,23.416025857980728,16.432003480473448,11.266687939207724,30.735782659273948,10.003627150033923,47.65751228901009
0.9219950514389894,3.2166471453615983,19.648064349628914,7.2552569327045235,8.48776367675211,9.148185415218832,-29.320698370962067,-14.21954461058434,18.032859447891944,5.295257650362769,-15.294523355509815,-0.8574521123282546,11.628272739235076,-8.176592152397696,-0.11234900468627362
0.9259018101315275,-2.910281968986702,-7.672836471834627,-3.5515537004115636,2.930843211774329,6.029110070062726,-23.438201587473596,-8.288604290415183,-0.5533509761312811,4.083385855708096,-26.535915985161477,-7.212371166751261,-9.210299862894027,-17.17012286619474,-1.521936723360256
0.9298085688240656,-7.7041806936629165,-3.3862783548034265,-2.3824745557910396,-13.683255924052933,3.886405944881955,-22.509404848549558,-29.35281134802901,-24.950672273903965,-15.696366734617708,-24.14403187043368,-3.6172428067135343,-29.699790843063607,-33.51825236390417,4.517335123564012
0.9337153275166037,-4.576002105485818,-26.54526618757361,7.138777220907472,-32.074419510674986,-5.372193834606902,-6.604950860187662,-17.755838462831612,-35.572050663883125,-9.995067520173253,-4.081239423225762,-7.594762726792864,-43.28008503695949,-13.401056770443157,9.746180415358653
0.9376220862091418,-13.050166870037637,-17.709948850743828,9.462439924872193,11.571981572944361,0.7871985365707204,14.49957151002247,1.5864453227885527,-26.482183144087962,-8.785616970816342,-5.550127983353601,-5.019503872951256,-35.675096497719025,-2.7219937614184238,14.212160736902103
0.9415288449016799,-0.06612954507835744,-9.95423845333197,22.839235523337155,0.6104803464164805,15.259653685209784,32.809263835696456,29.68523726097972,-22.565090827082948,-1.1425743763594545,12.399470156763385,16.325213145313647,-17.57836260945196,13.01944887570555,28.51440911569021
0.945435603594218,25.07595302598642,2.306105334100309,38.43623961764467,24.73163714823447,21.60692010356326,50.61720041014356,45.35843975836751,-1.2653409639607678,23.478992185126636,31.47380973090636,29.27894323141504,4.625397963065132,34.82597993146758,40.20958381393403
0.9493423622867561,24.58666985599403,15.348428281052463,48.35582673443062,40.2760596908919,30.39045599018398,68.94845433396475,56.9371452208299,24.74542661127264,48.92779013536663,60.412268230663585,33.42569803192102,28.738759642832566,47.115117027550085,41.858681998525824
0.9532491209792942,46.846757504749064,34.270883974980435,42.6911325948077,49.21564687157632,39.95792147747869,66.20741991488936,61.88288391984912,21.42277298723731,48.59024778327364,58.7078776356729,46.611804376064995,43.083254731595034,69.5853970145977,48.91068679377793
0.9571558796718322,39.31597382169539,43.04396563569156,32.36446956028792,43.07346042405065,25.939276382818136,70.29245170838401,68.74441575167161,39.717053272022135,54.94972438975832,65.4050994097644,38.41298889884997,48.548134262520364,57.29196617102041,46.1178780890295
0.9610626383643703,43.25734424882821,32.34137447547418,12.012393984422648,21.785647543746094,18.43048318013085,31.092185394666316,33.71775229914192,34.5648780619799,45.939427333885874,41.320258055511566,19.617276201317328,31.60079011344542,37.98093666376989,30.95304203881971
0.9649693970569084,19.752780273031306,19.116980228784495,-5.969515279473321,0.6765036952354726,-2.0654328500666703,-5.171268170475408,8.329373009951837,24.996359010083957,19.422540187050398,7.725921292373932,-4.113054419268438,7.973202623940071,9.530868258522212,4.3451040231836915
0.9688761557494465,-9.213690032360272,-12.26529127419944,-33.600355247993775,-29.67822615450887,-19.123924284996917,-49.08019292202462,-34.64464924358088,-9.1108492990923,-12.178891395394388,-22.74875445498027,-36.23996335282947,-16.20709271442982,-31.9325053367208,-18.074812449909857
0.9727829144419846,-33.50147802895962,-34.66241930918309,-65.78832559618466,-56.81306818146825,-54.889069296977546,-72.06322154272965,-77.21497941055947,-41.85909980335271,-36.59953637780451,-59.707349621765616,-67.78053635332671,-44.648059809168835,-58.74098215446724,-47.06709128541631
0.9766896731345227,-68.50965826725005,-58.14813469714309,-82.16587772338536,-87.44098149726453,-86.77656851731703,-100.74135574208637,-94.60232112344127,-66.04525764595053,-66.58414927708144,-86.95165442200481,-97.25340237567103,-71.90242828201431,-96.59821921981566,-77.235768953124
0.9805964318270608,-93.31976330544312,-81.79903374486821,-84.48635541406162,-97.43798496534433,-91.10940512161048,-103.17947703155843,-99.05706280870866,-76.78700078997274,-82.40888737446497,-94.59974265927997,-84.64964278457208,-80.6932561637421,-105.50370247055011,-88.50559622799813
0.9845031905195989,-95.69110781707997,-96.7137889135509,-82.72644913323781,-80.79285984247731,-88.18508406287378,-87.42687238300842,-93.75835665536032,-71.35504790376089,-102.76578601110182,-95.6374304052685,-88.27162012054815,-75.64115651885558,-93.78264694271925,-89.03999537575336
0.988409949212137,-77.91921517419294,-68.71353882412683,-58.57090208782794,-60.64412086020071,-63.63001300149742,-70.95530006124662,-53.70033182597537,-57.04249851165164,-79.93389913672308,-77.92752279791829,-59.27276417816464,-63.942686135757405,-66.02025882271083,-72.15176295786033
0.9923167079046751,-50.001686231015725,-49.67005837929414,-26.390091003423173,-12.714416639645673,-36.14102690415033,-20.013842827444535,-23.532629162886018,-23.95403879399275,-53.049765778318076,-36.960336810754654,-6.369366670524049,-34.84200205731854,-27.55300743068729,-50.13440068469761
0.9962234665972132,-2.873089197753867,-2.059468073603769,21.095968762075238,19.350535914461126,-1.8178041009178418,19.128326764741253,28.342897441544288,11.179621424028142,-14.156836438383072,3.313864145491336,27.892312733164555,9.264379333116144,10.086922877569949,-7.80849365363872
1.0001302252897513,38.377655452254444,35.299810592488434,55.92743915829416,65.77755550506721,51.15343756964098,49.59739716013483,56.794394608118935,47.39369229793201,26.31140108990042,41.665847655414986,70.6169778064498,43.630621593107776,43.70049421557921,28.67120123656683
1.0040369839822894,61.47065968374963,73.73704505395843,84.67006271241385,89.37823272867821,79.30085268280715,80.6507773559991,98.54003315315407,79.97087384614325,67.38658429056122,78.18315669325115,89.38932649276371,73.96800430307617,82.01356037272686,57.36076295364892
1.0079437426748274,100.92332209265118,93.69867974315011,100.40313474064392,96.12527823752242,98.82456462346667,91.94656373708222,89.2741453307738,93.03010908949686,94.32159553928769,94.98334152209836,105.4677738056338,85.31416402310751,82.35510928462976,89.24915907390732
1.0118505013673655,93.3837647379239,108.64564635098338,98.37980310324774,94.06321835223912,101.10101276351891,85.08502071612193,84.10864834050219,96.76360558241456,98.25669447326086,91.48331088071716,88.89282069525032,99.69471200139824,81.956309495278,85.8069459112848
1.0157572600599036,91.49295517049336,86.58159250903842,65.2995478750678,71.18362375343952,78.7015445022613,62.44624482514478,69.2337496971605,84.33535028635889,93.39670618002101,74.81476174373739,72.27150138012371,73.22195333388193,72.45628263689431,75.43319185622708
1.0196640187524417,75.11686747133325,57.908354418948235,22.853975593074196,37.04224226548091,52.00986993408596,19.946388348856594,36.79824900133184,48.115963606674136,61.935374293147625,55.61239652661645,34.152694484896635,43.587556229971085,38.681090819827254,50.89006589850008
1.0235707774449798,32.80984431450911,28.86289741624088,0.6362686521252501,0.6568884363099233,20.749949194594393,-6.523309064172776,4.19683058060026,8.13896214775544,37.77829228771174,19.358327933641473,-15.768877909615103,11.742835990760852,14.833911192947399,17.71238201365494
1.027477536137518,-16.289293633269992,-5.2683122257340305,-35.10166003820454,-30.695691720008266,-23.27307881874769,-28.912344005235433,-19.594530089465323,-15.383752449206554,-3.601464390067387,-24.346958761098243,-34.8192483315908,-19.95735631293458,-5.0403092703803605,-13.987578986503463
1.031384294830056,-47.379063720970436,-51.332716267113156,-53.61403750352791,-51.96402699756826,-64.58568084437786,-37.06910690596991,-41.63262899268834,-48.63563391894646,-29.85322917273509,-39.000757838370646,-62.03867656784685,-40.92117265879313,-38.294949230161734,-49.25733248002151
1.035291053522594,-65.69179714265164,-60.18291813266764,-64.55753747434694,-60.03789224329066,-74.84168320199285,-39.77165893005336,-52.07534000754804,-73.8963781139411,-51.37846844165792,-46.21686541631306,-71.47477301980977,-46.351412466878166,-34.95928294003801,-58.37861260030608
1.0391978122151322,-74.90262498101202,-74.09549256684738,-52.76620088562021,-54.808445093843446,-72.04893760772956,-30.324219683670922,-47.436990952255606,-76.27219318908114,-66.46386370457381,-56.12694024104636,-62.62378200083758,-56.895022995458184,-39.04742830748741,-51.23112576040889
1.0431045709076703,-62.70167253006902,-69.30060299110052,-38.91388680395279,-49.0905327113354,-64.59142728009155,-13.709939610687323,-35.70762252821754,-65.42433639639175,-47.41442136432592,-33.362772971507844,-44.548639132297055,-51.241324708457526,-30.299312915703915,-41.96083360255977
1.0470113296002084,-41.434405461016226,-48.58357341759268,-15.414298634046853,-19.589860801025207,-40.186110412158264,3.699093082173256,-13.055461500534713,-59.024254024142635,-35.32251921596983,-20.354621776298888,-26.305059905298336,-37.6525844222694,-25.670770478813527,-26.304586841019173
1.0509180882927465,-18.519150832383772,-9.37612892046339,7.144562235147655,-19.09018077553975,-16.990031225162994,23.37880289350665,1.3145391359001182,-27.17246146175687,-22.221207557424307,1.3677856626350504,-5.921031115852911,-25.38165841416001,-5.638990100317831,1.4088160571740298
1.0548248469852846,-10.680988527783903,-8.699799328642477,31.105628275289348,4.387964311087787,7.393900890375116,21.31195293952815,-5.12943096964716,-4.10432867728829,13.172987486021258,6.997358976864589,7.746423015638342,-10.271907740548846,3.3591908910373665,30.72575749520367
1.0587316056778227,13.460646687974037,16.290806199048006,30.07972082505149,14.255036885660209,20.932911650826206,13.03208592615312,9.733037475221456,7.241652179330691,26.29478117357273,12.054363517032183,15.893054468938853,-13.193594830213895,5.387910626117572,33.4564636784702
1.0626383643703607,28.244495156560934,15.368666460466919,30.621798084014973,19.704803489426332,31.967263205934508,-9.177791890916154,9.791750631094947,27.355371634931764,14.33031618095906,9.339791998085047,21.16513216093038,1.2453584850903647,8.763770667361687,27.371756917122948
1.0665451230628988,32.53152517062433,22.00355516659851,4.340045926226173,12.347210821518168,33.708577766709055,-17.50868575968562,-8.627471242719261,24.02602503349699,28.14943723197578,7.204549369661324,9.202784361936457,9.151746134758659,0.3159927947294521,15.42778252632084
1.070451881755437,7.1211212300335465,14.80143020416526,-19.476191642683947,9.326112623043358,3.350266568173171,-19.48385189697261,-9.552428671706144,12.025613441074778,9.036572675807239,-2.1198644829071656,5.454323393159328,12.378724940822456,-5.629236187540575,-8.762696968784166
1.074358640447975,1.8216475383748323,4.613617336321169,-26.000214513048682,-3.7719105162280275,-13.144928791757863,-38.12128804709027,-21.6038549662664,24.275217854437408,-15.02988803021885,-25.962192713784972,-9.744629144076217,9.994054594529953,-12.36542975661862,-37.05803120154762
1.0782653991405131,-12.074555987743066,2.803014039562261,-30.186078415105797,-0.39075203163011973,-21.068566611918126,-34.14413964701266,-19.85492065045045,15.663455446676835,-10.66293109064255,-28.29602493695751,-20.92862718795018,13.972137972830573,-10.706447988575956,-47.36491556027925
1.0821721578330512,-28.530856997817036,-8.690402764997927,-42.54288049807473,-0.5519318712923378,-23.260130409108687,-31.823487057218184,-12.256068573714838,19.262356030681644,-26.57486742952735,-22.820026987546495,-21.59291691954108,26.47037618727707,-12.861498568217344,-51.55178083087106
1.0860789165255893,-16.097513116964112,-2.6372970967845797,-19.782879061654867,-2.9124587637713626,-24.163299416182305,-14.911546899453175,-3.144936747734393,11.619126971168203,-20.10247002387083,-22.14478215310392,-12.604809635283154,14.520526553062744,-3.3863522685022227,-40.845924790994786
1.0899856752181274,-8.17749997490722,2.5834672580443674,-9.101213160869325,3.5819206329488535,-10.204167440855313,-13.33354167460703,11.226319538188697,11.102599144835127,-17.515502609984612,-14.842710300480956,-7.182331123643389,9.241776506224358,-5.317707953906181,-30.059103844094363
1.0938924339106655,1.9209339998718573,7.776368632477005,15.63650873774115,11.135773226144039,8.885877505405322,7.650678142103129,15.298145944458856,12.780997342714327,2.6895309567559424,9.047410421872057,6.520652145265296,14.407050355439868,10.87978065054327,-6.130662185697668
1.0977991926032036,21.29792483047629,9.970621161758249,33.52101402864484,22.78589254236875,20.369678264300973,30.736814132363875,14.4350408628251,6.324751662906714,14.533868924557364,28.373012208098864,20.658555196928404,2.6904345919632426,11.804077596232627,17.019252528737425
1.1017059512957417,22.797252088876775,24.16822332058056,51.76954278673692,16.608457975670408,46.431767102371374,43.66271413996464,28.36216662054646,10.270852290299148,37.67052923635334,29.131087051929697,45.02720732722252,8.984685497233931,17.398841939976332,47.71108405594932
1.1056127099882798,39.956833385737525,26.831444135070956,61.990908046927686,7.56911872862878,45.1073821447396,50.97139197284612,34.55481710510425,8.939376053043881,42.906042754589116,39.29154873454425,38.25608365343189,7.875486191125381,34.55798007003783,63.72381219602428
1.1095194686808179,46.31809788307062,24.549834491856295,60.11753720765668,9.634693450258093,51.9684755932042,59.00332368874999,32.07675969985739,0.9384795664343446,41.90232902052397,44.41725838550982,36.30987653499727,7.30268688318861,23.81482686271252,68.57536723959402
1.113426227373356,36.28805112936047,17.853502850160243,46.51064187435361,20.610869134767725,42.6853466765479,47.39829138024385,25.75039152397684,4.228923402710528,40.582558356927656,36.02236869631219,32.31300301097121,2.2537127834231243,25.97460685065556,62.367560837486494
1.117332986065894,27.990272820723813,21.16107261808136,37.72627582679183,10.530482906511942,34.083475780403546,31.71564376477374,38.29280021927274,-4.929264591767515,33.84436450084818,49.72184939695924,17.000839549890085,-2.545601530017958,24.371518372656265,46.566753819512755
1.1212397447584321,14.372687439201684,3.7201555154649784,14.369623009826194,12.428330720055754,11.159744364315443,22.676504874984644,15.309709905904516,-12.175500919839727,19.05737739405992,19.55045022651183,5.436261415436738,-5.738123825660054,19.02308856733386,24.729198601878487
1.1251465034509702,11.670984693491159,-1.48314616834162,-17.49820437691765,-4.344793941447894,-4.628774237060764,21.85543122690345,6.377983809470047,-9.289227361825072,-21.134499331017306,22.946861177876663,-12.346597096548857,5.887860955201686,16.202318813155824,3.9400682228281063
1.1290532621435083,-10.99961748878097,-13.68324819555001,-28.996929266488735,-12.10553365698022,-23.585407807603325,-5.554036034962996,3.1040062245218154,1.559084794083665,0.07721285197764427,15.207237755264707,-19.732851173359578,12.13868858940229,20.25142615789464,-22.69119211192565
1.1329600208360464,-26.72095156200119,-17.090182985188637,-49.476266338826015,-18.837000717333467,-46.11184742923382,-4.140359107104031,-12.520855383504689,-11.846813553122109,-16.736349629503685,-6.411048665847966,-33.95117188452284,12.464658936472425,-0.5534355997453875,-41.75573011874016
1.1368667795285845,-25.927333319022942,-20.743887045658226,-54.69169766150223,-25.493018157970138,-52.950802597405726,-27.60347308607094,-35.18523594182248,-4.601128189921752,-33.0070521151038,-31.302365574497927,-35.48171997924794,0.9386963588787243,-14.780274676621868,-54.948211421682
1.1407735382211226,-37.73049681933373,-24.855518124083723,-59.57252610036894,-38.12411625610084,-53.771951583814385,-43.40295671082641,-43.33229505920934,-19.388764402736733,-41.223681440106645,-39.165982699070376,-43.36792594653184,-25.58080346252513,-26.57130497271021,-56.89125204586452
1.1446802969136607,-55.89501695513914,-43.695436585171194,-45.93172471403012,-46.656519886206816,-44.747356860562824,-62.74899340169139,-53.94420044714889,-27.025288395508355,-58.329419110064286,-50.770853830141654,-49.60599857339404,-26.494518218459564,-54.84864835718347,-64.86173744059465
1.1485870556061988,-52.793207489865516,-37.431509544362626,-42.339799225332264,-48.348171119408285,-41.8858423974291,-67.37019884350346,-59.25746234795656,-36.96020422079498,-43.494466256845726,-66.85654266914938,-53.25849804046003,-42.542566726860436,-71.20729433836847,-49.99693476136549
1.1524938142987369,-50.87497352606852,-45.907553220299846,-36.19398407777705,-46.16092856854329,-32.36854248957153,-63.16461889649515,-64.6216257964154,-46.37399480018625,-57.20253649349802,-59.61767220896052,-42.096735691689226,-53.879934626659576,-67.02672643784489,-46.38932809733801
1.156400572991275,-38.60767814214437,-37.523610342079245,-30.364258858466442,-37.37948748133145,-21.111171721137968,-56.31222388633702,-47.72739262377642,-39.7876272622878,-49.32575487793744,-46.768883326556185,-31.507870141380756,-42.60702892381036,-58.26900854983913,-32.59372198415472
1.160307331683813,-34.28780325870822,-32.12105372294006,-8.283515652431376,-26.23221283296248,-0.32864340949738846,-41.522556272850224,-34.74660398248538,-20.932928693172684,-33.38082634587905,-36.82619607274071,-6.59163453970611,-47.36215396127951,-47.178499544455846,-11.419976459648886
1.1642140903763512,-16.655617297660633,-7.857292046371911,21.529810113038724,-0.5093126154540251,15.44826303871517,-5.154015600041996,2.573266137096029,-4.937679611607944,-7.9756470268702415,-12.836052288654942,13.788544472448727,-19.106615999484674,-20.01450728724713,14.239535608227058
1.1681208490688892,8.872135640591907,15.104134650036103,31.41467540964966,27.3817199531071,31.524359491128738,13.958045667850453,30.69071576267171,25.47302389217127,11.353613215379454,14.21746142618705,32.20217799354566,16.7207608933466,18.986972028250705,25.48798634591499
1.1720276077614273,32.411037821480384,36.042578830910315,53.93464066999737,65.21215029106398,50.35687120339354,50.22913898170949,54.52000725264217,40.004778119098695,29.424092118271275,38.28452271087706,55.58995717240422,57.12596306883759,52.29467945722716,27.15085034900897
1.1759343664539654,59.141633122291324,55.42127853121508,63.4768321919486,86.41486371395288,64.47382435742072,73.03231819314782,80.61223046378863,67.62268345596613,58.837751813953155,66.19487042016591,76.18157408135413,75.35805866314185,72.54055154460697,57.76631910355914
1.1798411251465035,71.54280435098896,73.51529658718611,69.41420960548086,93.6872966431051,67.55832027726362,80.80343004772601,89.22331906923345,93.92762546057986,76.25890379191753,84.43867228314039,82.8319359134913,97.82171294412402,96.80172964911377,59.602040266604064
1.1837478838390416,86.73138820149858,78.89734728932535,54.009223187075264,90.65560615710365,64.3993427665569,78.44953908367894,84.54282264758737,81.67283152193123,84.10852975462747,85.88402391708813,86.65086131610344,96.60718842189775,92.90215443402806,62.28812093038031
1.1876546425315797,75.74821000695965,69.18991410406466,47.45983731287578,59.78671975887635,62.39792879428741,56.72787167439401,68.02933197504787,73.41382923118947,75.82988294937482,70.94233839533092,49.44387157818968,80.59919922257666,83.42949053184755,52.3993822968688
1.1915614012241178,50.44219341774691,48.36247491263779,28.190334446357433,37.29111840100352,28.87062726719176,36.01700204624906,35.033934060055316,40.56305164115342,45.606026532846556,44.99618124078963,35.09058463734197,45.95387857921179,48.74466088907756,38.27196378308683
1.195468159916656,15.190688940833383,21.08369779667114,-4.319181423226373,-6.868676267318128,8.355677444738655,-4.4744896919196595,-0.4920545419945068,11.845749887350907,24.887304072538736,8.165300982084421,-3.4007557147344354,15.74517507617729,8.969232483728415,15.223968016550806
1.199374918609194,-2.264977766791297,-10.983194975702432,-24.592464915093192,-41.6364206986098,-25.692469337034154,-34.35463294418802,-34.86420655849952,-38.36487715491647,-4.025631297494286,-20.98090410189401,-34.14430925285281,-32.36733615865857,-25.62608468491849,-14.087140298709325
1.203281677301732,-43.25931762289892,-43.980459470326515,-51.64711416349186,-77.92465284919427,-49.79766680240144,-48.98639714788938,-64.72788390939506,-72.14475212124917,-47.80749547442667,-47.94828025451959,-60.72371367177207,-60.848681816296924,-57.539838757213424,-31.900501300623805
1.2071884359942702,-75.70658196573905,-69.96014931831931,-55.74185705764409,-94.94764454010051,-75.65947389026772,-63.090574252933436,-73.55475857167258,-95.25480944359902,-58.26131227018157,-67.31406273503733,-73.35469231655831,-89.23975557852316,-75.81866387033172,-51.135857771399664
1.2110951946868083,-80.8879562949297,-81.15208719536666,-71.15219222832748,-83.06132006367555,-70.18505653854402,-57.46132773651921,-72.92032299000368,-96.25330631014452,-77.55943613962354,-68.20244063739652,-63.03440095713751,-92.22168520667373,-75.5860875974001,-53.65475851405458
1.2150019533793464,-72.01830030219384,-77.84342963996225,-51.69446337941576,-66.5965960476055,-58.774804476920536,-40.11124838704902,-49.26931713703358,-76.02619956606206,-67.8679982739721,-50.61042291748933,-56.97909340051106,-79.17255283556369,-55.87210751130129,-42.85659209337943
1.2189087120718844,-49.73080154556941,-69.52620280887973,-20.828717407642444,-41.15185970491947,-47.25928624572676,-13.559215691601166,-25.01386154110725,-69.77578490739994,-48.04957360195474,-43.30513236824729,-15.62038842183287,-54.419493065267176,-29.248961087374113,-25.99747293116013
1.2228154707644225,-19.216305270736292,-31.897437461398653,-4.310042362777427,-19.299163453991902,-14.683518393546212,16.814363051707893,5.010889662141392,-24.220805183715395,-16.69161378337889,-16.818273064127276,-3.89447318978536,17.12432811294045,3.5958603803140807,-0.1969460937906593
1.2267222294569606,-3.9425152400230163,7.1910866694570705,11.119977837889817,31.45620138275524,9.495605465705333,31.101292833696466,26.271556438772436,10.812947989298015,5.389389645971461,-6.653247921103695,22.553196942272546,16.771227530476846,23.185871084032758,4.58191608287267
1.2306289881494987,34.431284953725,28.21605256106642,31.877135061717627,56.59687548006705,34.951316145699906,29.099648025855117,26.744716657221517,47.75025573803663,18.327285068737044,39.841004063754454,46.6703835870425,44.80814507493553,41.770075064701466,18.32853806081625
1.2345357468420368,40.506830842096434,50.426976430536286,48.492146352745664,44.09685384324955,39.091528114173414,28.97448829022994,33.03900864569529,54.52059595895078,44.44285148342257,35.47883550494225,43.76470127171582,53.75629730829156,33.49973230811637,33.36134152923038
1.238442505534575,50.10123395673044,57.2876335313116,25.110436187698028,48.959912312159354,46.44065931700169,17.925929886489214,18.24238191810788,75.41168870492076,40.89046414122971,36.25868009343772,41.73854999484631,57.25742317999456,30.40872729779202,29.59055635836335
1.242349264227113,42.59055609690757,41.39827965948803,1.8937231304829503,19.782923344091706,25.399606734307767,-8.152055676680117,5.332918109939323,53.331739102368964,28.05681611302416,15.457274003059831,17.503416657110307,38.06648285744185,15.179158631875458,9.848250844753162
1.246256022919651,6.8267178639220365,32.09696391665591,-4.407255562914459,-1.7291516724979914,9.835338096825481,-36.929742536686376,-13.675208979986055,35.334315571580674,17.08418228292903,-6.826403435607373,-4.16291386563447,18.471582602563974,-4.4571529554656255,-12.439031925594412
1.2501627816121892,-2.1310050348091676,3.325917612259362,-30.151434717401024,-12.7237492985445,-16.86446245043974,-50.67444097972982,-32.62694451587075,5.542646858359225,-14.48600038947328,-22.222950404862594,-25.28887781204513,2.0444609751273157,-32.1824350211535,-28.434596455149503
1.254069540304727,-23.15149687556581,-20.974283195048685,-82.7071378758852,-33.88173454778928,-30.514792215506425,-56.948094818689576,-38.24398928695338,-9.05580615317882,-33.81762039974149,-38.01799899888419,-33.32682141928457,-16.489220443229623,-37.231209967098,-37.582024777546714
1.2579762989972652,-40.12118515058508,-36.807988360521165,-44.06643642688534,-32.33549339381121,-38.52124067955952,-43.70811052898579,-34.25396988477263,-32.33180598817419,-40.05319247368297,-43.827074860845734,-36.68518991385977,-33.86694986998316,-45.75795763804174,-40.744076625257335
1.2618830576898032,-26.98786176846009,-41.81998175209539,-20.077648939068336,-25.5058637247914,-24.368680437501457,-19.4280360262093,-17.649676161616068,-27.638431748748534,-33.8685232350292,-27.592947451290485,-16.268902845416008,-23.666183790759185,-18.335393066622554,-36.01180390259604
1.2657898163823413,-20.30395312054617,-15.168485144853411,2.352004521963862,-1.6033638542372097,-13.797631758813484,20.85713677959094,11.038522137273972,-25.410670048052165,-22.166870491031,-8.412887244540425,4.445585993511713,-14.574883324879606,-6.273208501425936,-12.015973712565824
1.2696965750748794,33.63962919735532,-35.92330401741621,29.04069683237382,17.081464882359644,14.865990844172801,38.18586356181015,29.8818374974142,-2.7981816108433004,-5.376819286814887,31.50398285286633,40.003321512116,-0.06355930988702596,13.254545635597232,23.32180064091192
1.2736033337674175,29.63663977209317,16.85329619968903,54.58393728648849,41.643471145134946,35.1296252147111,71.68171339141844,56.685952504957854,9.137154349099832,35.1878063661481,52.0799346104456,51.69761921225506,27.431117924395505,53.88806656697526,53.839291304800476
1.2775100924599556,55.101068042291146,42.15825642031308,66.65336030234836,59.06015813565211,61.55305796462568,88.05738411354119,75.8749577289965,31.23646749182452,52.605220201098604,65.04002053882331,67.66871265668833,39.66690622070237,65.82652117241082,81.62109601388426
1.2814168511524937,67.91800224988157,59.84550736024436,80.85854089531539,58.622157474792594,56.97597305989547,81.886686149556,59.760931471111476,49.63537919629836,78.28698292755661,82.48790656121518,74.71776558970996,40.65912236706202,76.76349689355492,92.48003658678316
1.2853236098450318,62.6009792553603,64.15543536926971,69.2523527294599,47.97314653690485,77.67695070621836,72.5068793495485,62.67462296636755,36.67202928085213,73.77425113407348,59.19273599798072,63.05102635701923,39.01132144425828,59.555109403362145,83.01120521892342
1.28923036853757,58.51941511091076,46.464770883958785,40.81740445075078,22.34813157432564,48.79481722247988,43.682274049893024,38.78014826062433,20.08142404662991,49.011598411662135,51.7061263742614,38.10644853658729,29.17530003929813,33.687440719803426,59.303612517973114
1.293137127230108,24.99594382366098,15.952032929550459,-2.5084593014531986,-3.9883716443373363,19.607907459224165,1.2846974195436243,2.365552119238618,1.1810585644767952,33.47399175935541,16.508060603412503,-0.4282229704039282,-0.6615603709378757,14.49089109243651,21.147060907883933
1.297043885922646,-7.365401561712936,-12.19567703568847,-35.7387080569036,-28.90507914823656,-20.45388709995277,-28.133498225133255,-33.20465995457257,-24.29868829075627,-9.785520404703792,-18.077664351925108,-28.95206866086709,-14.46529521679933,-7.317433184120617,-10.329287823893537
1.3009506446151842,-45.315403471688796,-47.05115294215135,-65.33867288356285,-57.03915563620656,-55.942253231213336,-57.49541304925091,-51.012645921946124,-39.63381673076179,-37.58314750424008,-55.61201502949078,-67.27700673359892,-39.80230889271415,-46.982051547996676,-55.746027361010185
1.3048574033077223,-65.08784319534638,-62.25938231012142,-92.89102773261085,-73.90102898043823,-89.57646039134849,-80.70385996685411,-86.20821008733773,-55.67551508220618,-74.0619609910946,-78.55058542292845,-86.91744040107753,-59.771800991889506,-64.13957174786994,-83.7758336332598
1.3087641620002604,-85.22014519795559,-74.49932716434182,-92.7695727401212,-84.88563299667675,-87.58475746329847,-84.23133967346345,-78.98825821038217,-69.4876663011521,-77.84064047613002,-83.08301047901988,-94.26551677610956,-59.5307362073446,-72.61893533636974,-98.46819407568151
1.3126709206927984,-81.76501207192229,-82.25270208165054,-81.70000543187417,-67.84646296101694,-92.73693041281646,-69.81479245119228,-72.74006195178443,-53.7490044644951,-87.54390250889817,-74.97511616761237,-80.0241287615136,-45.90204926426981,-69.3922208531739,-94.7496013855125
1.3165776793853365,-72.79549049095286,-62.156996981715494,-55.678689620788845,-47.27912512315944,-70.82242426824172,-55.62154749964967,-52.7933999322306,-43.4604323253081,-78.32417474552163,-65.40100513738093,-50.18888497141351,-47.68800816353274,-58.40532479193877,-75.05566763896367
1.3204844380778746,-48.00856437586707,-40.378824540573284,-26.887886975536063,-14.214896335699878,-40.93374418043714,-31.157528921995844,-19.876753897576975,-17.190358125060847,-57.92906404046558,-24.149281990724145,-18.870140990417106,-14.759482907605484,-30.76484114229217,-48.35193551701635
1.3243911967704127,-12.21922647359385,-17.170920988044053,13.899472611430255,7.512098359058554,-1.7444218785780903,1.2708668896433082,-13.809832053417711,1.666191820377068,-31.27677665963683,-20.168863778774284,5.815008287140495,-10.340850983082506,-14.88058956503044,-17.5476060544409
1.3282979554629508,6.635821820535727,16.456247922706677,43.937802193842614,25.28809133284515,41.149210646826994,25.879236921499675,21.340220103612314,25.022496856410655,9.78145497523773,4.274576589106136,33.29367797374848,7.867539406129742,2.045836002165116,34.36266143961232
1.332204714155489,39.27747615853227,43.90718557973419,55.629123012398615,47.31094115851637,64.76951862369852,45.80210747764611,26.803309913054832,38.80844622181075,32.94695141346143,26.104076115578323,72.2753516233638,22.54835800148495,28.2046041608114,55.807328926414016
1.336111472848027,67.77323354769426,62.742487929748464,75.16897720270924,59.50026867803577,75.84585599781563,47.10673832346144,51.58319439629296,57.87397175321237,44.25803648373217,51.99247494346724,68.61074863901311,32.39086815483192,32.537767554233156,60.942982020317686
1.340018231540565,59.46024377225212,56.19738105723404,70.57335260029477,46.040858171591296,74.00552472457879,39.625222471700695,48.22093365277391,59.09848597452901,55.55105988458523,54.854857090898825,60.35865196702241,51.7444559891022,43.08761843298237,73.44878894904154
1.3439249902331032,74.24929341274826,66.44589984770728,46.94532717768624,53.53225908602458,71.91649867481854,40.103275071538725,48.40961416908013,46.9352093602314,65.77436035616464,52.87028613853445,58.93603112002683,56.539790611889856,46.56962360744783,63.16609030577252
1.3478317489256413,48.365182826137726,57.25317249760028,28.703540055814848,51.37922514913801,42.75912478194897,38.993376001959966,51.63986536954498,56.593758904857744,50.23982802804622,53.497958383466425,40.522869243139496,64.50735170236034,51.803991142436615,46.10472914622091
1.3517385076181794,39.59357924508894,39.69839696420346,17.706678514516746,49.528948002195094,26.9205446416812,18.932016406586804,43.89549496606292,36.99394008867523,35.88912151983472,36.63451759256061,21.680047793539046,55.98880148121037,42.90987640135227,20.541800754902255
1.3556452663107175,16.231030422029818,23.71064904478127,0.4531709353050446,25.793560947940186,5.043562691274687,23.137931390245885,33.09314304686099,25.526948329120195,30.824489727001886,33.11998049901917,11.602018390166215,40.63904258894108,44.471500608899426,7.144674612632631
1.3595520250032556,4.565554757712861,8.82169096054273,-14.773598209469604,7.1575123984529885,-13.851621032959649,10.8561383733182,10.157497815146904,14.010680770105985,16.841313620725348,14.523379152797764,-3.7618441454550973,30.993187204396246,28.22145721957996,-18.57809651794418
1.3634587836957937,-4.7338209491669465,-4.499062843190099,-21.16774303376706,-8.492894197867452,-25.213171301187252,13.669059139281385,8.238033185319301,-3.415165523446782,-4.107975202364209,8.824676704742917,-22.48320026105866,7.806768033280392,18.273975302745406,-74.88136629578989
1.3673655423883317,-13.833125391212494,-24.98428783118628,-24.512035276480553,-20.145891115277962,-32.53853627409153,-9.931628221844502,-17.16466205487076,-24.69169302627513,-9.236390695505186,-12.293387710964016,-19.089375280068097,-9.798093671619934,-2.9958100704902146,-16.660705576270853
1.3712723010808698,-12.994172431511899,-32.93857902510527,-17.391065541905057,-37.83964249870249,-31.657277183550907,-14.75029607839749,-23.80402624148813,-41.224126559049395,-19.50323882531211,-15.671702864895176,-23.575694145035136,-37.700200940677526,-25.5413280771322,-10.29236663931574
1.375179059773408,-25.532689325643165,-35.325405349821686,-13.407944949218635,-56.14052393854618,-41.38056248513923,-20.07185448171635,-33.98396550140677,-61.13632617798495,-23.388930744378655,-29.834721855516975,-36.48155012797477,-55.749786535622675,-32.30371233801291,-9.093136778430985
1.379085818465946,-35.014343845747526,-39.54763043553585,-26.973381346063253,-53.77722795638193,-28.768861459321677,-25.185551161167375,-42.07919057545019,-56.649607901951434,-30.371654554510364,-35.97563444070869,-35.54442849139854,-70.3744417969852,-54.4303589270011,-9.056087161829556
1.3829925771584841,-41.70846505197374,-46.00372711618034,-15.712610955433915,-53.55460352144761,-31.823583086439342,-18.899741570343814,-37.633272542949165,-71.43218566696673,-29.235257803968267,-33.68440852042158,-34.90461807090126,-67.64226009582703,-47.07621057190622,-5.891102911463166
1.3868993358510222,-28.295809471255104,-41.88775927921968,-20.03944175825323,-41.703810193970156,-15.76123267146736,-24.028330415816576,-36.453991119532645,-48.85411763598907,-31.534833957656502,-37.230532959824856,-25.037960140131588,-58.063787464724015,-48.41433294589058,-7.619287494003415
1.3908060945435603,-28.380351670532534,-34.556490426325944,-19.513501538501412,-30.299402134096226,-27.179643773192673,-14.841162958933033,-25.329966172971485,-36.60199457200637,-31.360634336001887,-32.97696594301277,-18.699225332404836,-47.59738726514779,-35.99624509762763,-19.268682409668205
1.3947128532360984,-24.10814327957167,-16.936682100233682,-10.527701179626945,-2.803015084323488,-7.417273081861138,-6.661742188524918,-17.95834271731391,-8.702179856192174,-24.691817489818245,-20.131104595668912,-10.8200860466811,-80.8429176173342,-16.04028076767797,-18.960543792104975
1.3986196119286365,-7.707157707998848,-3.7520131519402833,-40.43636602646896,10.294378950490989,0.6337200729059003,-2.63679806920225,14.436372368864653,23.77576212846,-12.410276254557608,-4.533606292944042,10.866451983340312,6.774266311889586,7.913897933474955,-12.417424196631423
1.4025263706211746,13.328373840709313,12.024110426436959,-9.320328148178469,29.439082087191572,1.3204019121238524,-1.5570823027798975,8.355716448436969,34.00795077732186,-4.224898326136821,1.470398737540819,6.162875734474404,34.79543970448915,13.368975584375663,-16.491609565730702
1.4064331293137127,12.348974252849128,35.35252335832183,-3.5343705692595124,41.995750877261834,17.619624432840347,1.105531970936446,20.609983279490592,55.00248528634274,3.182546517868766,8.047480938602702,18.048795999336505,53.25784020886748,22.844960224776543,-18.45122253374232
1.4103398880062508,15.48147292018923,42.113353651245575,1.329381001917309,37.80982956322705,20.169905647434177,-2.073623820852082,28.512629795333858,53.00242319756476,15.178000659294232,16.910690462536007,21.942341046086927,58.82339269182285,30.835148080990287,-14.536309501511399
1.4142466466987889,22.913199783733145,44.12642898761489,-7.432078119517561,41.28468071966979,17.946711964073895,-5.932443543059897,18.44320474574237,58.47339090201615,23.617756686678995,8.039665193982724,19.09335883812416,48.489347642154385,29.913096256483744,-8.321841924672427
1.418153405391327,25.236924326455004,35.422324582252934,1.0676850310531445,31.167475073493026,15.199900691226228,-11.393501229114944,1.1225567979227407,43.9822353484293,15.38779471697761,1.464392415665392,16.302834345301335,35.32903067481768,7.407212812197217,-4.514601224602128
1.422060164083865,10.188046086896426,21.73040417823919,2.704041382062172,8.72286198882345,6.509206714134936,-17.420801143667912,-10.211131677504012,17.19511955340691,12.140018533977385,-3.886390580672682,8.831030211454866,17.17792935998005,-5.114549871851066,9.949293952477664
1.4259669227764031,1.2646701034665626,6.126644546450119,8.1616038992979,3.971587661977072,7.05890372599799,-27.55832786708099,-18.522716069989507,-1.017610925673364,-8.783874832836071,-10.693608372805972,-10.685403432165135,-8.996534290517063,-24.272433311943693,-7.291973546391843
1.4298736814689412,-6.629268506146418,-5.604994875889585,8.453451693548734,-19.438647830290677,2.471279054416577,-21.687300577373218,-21.93465197437424,-17.87675803009561,-14.561833028018862,-15.791608865726971,-8.42514588542313,-19.90590106392701,-27.907444558405345,1.7516113923399073
1.4337804401614793,-14.345233811867805,-11.456666904846006,4.811882671416454,-18.741712262972715,-0.6601987810378633,-5.034933775205965,-10.365742885624542,-31.479226880866065,-7.617331230944385,-9.703317852470978,-11.370224928731588,-29.587980287352593,-18.979941127643166,13.805015649982519
1.4376871988540174,-3.3382445405429433,-23.400577017579288,18.38910651555938,-31.916844042645174,1.3669769463301757,14.271191242038977,-1.6925249610211033,-31.599658152577806,-3.10983138587899,-0.9997579512059822,-0.6957876656840525,-26.677037479837622,-5.939625549140159,22.002444996633656
1.4415939575465555,-3.7737233006537654,-2.2753706447402875,30.58392239679546,6.275771056523619,14.075960955840799,32.407737878082486,21.141110655616508,-12.687997119837167,-2.9410086819135604,12.805224955564682,12.479764994929134,-12.604951193236133,16.664317379952482,20.752708283353147
1.4455007162390936,16.15856172863786,-1.2795521447752431,36.19299092928491,17.913302768315443,18.86352746708472,59.78573042449081,42.554431756569244,-4.42305998469948,16.597368526028472,34.01686730940039,30.652290549642053,3.9204643363670355,40.709390202320705,41.45533002763425
1.4494074749316317,21.375971938340754,25.427009103086167,41.942887096431946,38.98676967264227,29.28105844587605,80.50914806830727,56.10809071710398,22.34151561238246,40.645921994141816,49.80384736415592,41.726292470721575,27.38811134612513,54.77201894261794,45.92148480726982
1.4533142336241698,41.154823882220064,40.656756882152884,37.46670334374474,45.956446343947434,30.31859886497833,81.2215046512202,63.64150892808636,34.95035826753704,37.184552712096504,70.05903232637344,40.109485024171356,38.034140778871304,68.71224952748756,36.785519885041055
1.4572209923167079,43.775434456413244,42.56983378191823,34.313465764730196,48.15444043248103,25.03711744657415,53.59265611334168,53.67311972467842,45.20502316219811,47.08752234802654,58.065477476120634,44.357457223679,21.830485940093734,58.05994539134125,42.47000326587829
1.461127751009246,40.63784219324047,32.72386638712281,21.58330663061486,23.798885695038102,22.7976340058078,36.944014237533764,26.85593292899239,37.99143400546549,42.3361666406654,50.59286782240036,20.1882878304503,31.575962082594742,41.49811967817809,29.78486373936416
1.465034509701784,18.722729146135343,25.458469085606268,-6.783589031243535,11.399548566659222,0.9456927121198879,0.8137747740543428,3.903065720783186,16.764451287310564,16.246163497971587,10.038634165583504,-8.9447438630346,21.201929768687705,6.071275736924267,10.724328060298632
1.4689412683943222,-7.920655351206821,-17.421131021811345,-32.05041222896318,-27.839606858168878,-21.390973266006537,-36.55106876897936,-35.74276341357611,-19.87422816127821,-10.59296491966798,-21.475085914972013,-30.864217233166467,-12.034604917126025,-28.620025528769073,-12.702419304085666
1.4728480270868602,-38.07879137734918,-45.50170501267889,-69.35473978114051,-69.06142730007728,-56.21923911635351,-80.44838751187899,-80.3156594099934,-44.22711382949858,-49.82527356881957,-62.06852904593595,-71.58629249644932,-47.27227546541626,-63.12619925445243,-59.207169799778775
1.4767547857793983,-75.19714234005949,-65.83289629227647,-103.22089070652484,-76.20840908226282,-80.13257022714097,-94.08824400624212,-88.91197431239391,-66.72375263848483,-66.26579939229828,-84.14761150270631,-80.18908036529868,-66.88330485144948,-93.61498472162079,-83.54307594620046
1.4806615444719364,-92.58419914970999,-86.57699033276927,-93.2103579682721,-92.25684388674652,-81.75357142008717,-103.39786402839934,-106.266453916015,-77.613047808319,-92.76971956285698,-99.08922465621072,-89.82340865469575,-86.09759971924424,-103.32164222544549,-85.5078509632718
1.4845683031644745,-94.28727911275372,-81.6394879568287,-88.11561894994969,-87.82019073295466,-76.47703924767116,-92.59074702363739,-85.79076089835725,-71.11477514286182,-95.10757963662229,-90.70438184686742,-86.52958910641091,-83.42694320129598,-93.45811482952278,-89.36406659494843
1.4884750618570126,-71.61579104662104,-81.15970945558107,-56.71833073571488,-59.82618373076723,-68.32414050084547,-65.52974039613743,-54.14853543099528,-56.92090510062418,-90.47578512598717,-62.04673501764284,-59.65419598908737,-63.31043637851213,-28.296591494242882,-70.17028123715153
1.4923818205495507,-51.221653283294856,-51.145991331164765,-23.9210750790565,-31.601705470056473,-23.595693751341607,-23.258231574364974,-17.797152447580384,-26.611142000037884,-48.32977790950642,-47.75718088119484,-7.312042583057287,-27.497904210897858,-34.04711032194276,-45.34900838546355
1.4962885792420888,-12.507005245493744,3.1917228929831643,18.6522651185864,15.953686537452478,-0.08964740952237804,11.18050515325938,14.603205294548921,14.99218752086974,-7.270241228047813,7.098020122571496,25.481123709453726,11.902578140390077,11.057900599527443,-10.750025757392162
1.500195337934627,27.090115117808832,36.02249355269812,66.37322279085042,60.47514937611178,39.57411434422998,56.90188748331541,63.59272649466438,49.58219704651439,34.53406534785951,48.867175743447724,71.13509605120225,46.91467933473214,53.958200986450095,44.55270830871509
1.504102096627165,114.73769674712463,79.55998304375613,89.38487577951443,91.452427855559,77.2973846194081,73.46545021156489,84.07615208757629,85.67189020944106,60.25544906320131,76.14558779554193,92.73858001294263,77.9090045251591,81.90038122082618,70.16009111859508
1.508008855319703,92.39349356213992,93.54218237998683,100.89065687058584,99.99249511518104,95.4664238305392,76.63627967786614,97.83779094004873,91.08562594412514,89.40082499919906,95.38184975933234,108.10794942243635,101.48256949890036,91.02181115106205,96.82272090950369
1.5119156140122412,102.68219195374776,104.41349331386168,84.48176427276287,95.47287648105775,102.76967355234801,77.57825447139496,96.8036613643069,97.0936499161935,102.4352458625044,101.28579634246672,92.41105291297336,98.08451022019156,96.09017611922032,90.16970166661046
1.5158223727047793,90.61063648277394,88.42203101617618,76.50978548607576,67.24888259419426,84.15711235173157,67.40164722634844,61.06514870415563,80.59671324479264,97.34766755152164,72.70658204856376,56.47791820048999,77.62189181376442,73.86572701484077,80.8769727935118
1.5197291313973174,60.48918184178762,64.98873108476452,38.04951243737443,44.467832243141245,52.32411736454791,22.875988101501576,32.8350486848594,17.81876074748223,62.63838551323288,47.255475935229164,27.213259564227236,51.288431719085324,33.007851020729646,49.254262427676224
1.5236358900898554,28.315461373157625,19.166835967391957,-11.317012917573246,6.142466121894529,13.303067796962589,-3.0458556113768918,-0.2361153397767679,8.728628590605156,34.15388765954447,15.305622035727108,-0.3116082613825881,6.260972757715242,5.792084774698392,16.056463621947483
1.5275426487823935,-1.9049573224082508,-16.29785944172788,-35.40710223191094,-29.52636371448606,-30.027150343509046,-28.809800217758788,-31.169346757780907,-28.285002103300616,-0.7220445140658418,-14.741994533103991,-51.075132144069,-20.83304824161347,-21.336616249544136,-14.610801762847567
1.5314494074749316,-41.857612535306906,-44.66863618051022,-55.33912214559179,-59.264777496502056,-59.0116968634928,-47.361607192265886,-47.49513736103792,-45.50539847540396,-40.72819257901404,-39.27940028685603,-56.4543520986706,-43.18685668844209,-25.15713600213988,-47.217501767548704
1.5353561661674697,-62.96232328674812,-57.07436137861694,-61.976900292515445,-61.170868003307966,-74.86701470654985,-38.4326579891444,-46.348178199591636,-76.2220555247633,-58.832615531388456,-57.453566123591905,-60.0347966118974,-56.68738457318472,-44.01944390957642,-60.17639411043387
1.5392629248600078,-64.79908257855445,-69.28730413119683,-56.25329237894521,-63.59412182371517,-69.1740011223839,-35.376419208612916,-39.931461875992824,-77.61507930033949,-70.03605669676398,-56.595413573254966,-59.70887004197465,-56.461546980980756,-44.227637301562325,-61.250866543483696
1.543169683552546,-67.1542444432921,-55.5030687796085,-41.12720615404984,-52.30922831856651,-52.094031160725365,-17.166278087513206,-25.6494098881127,-72.92918602700176,-56.49076707833151,-33.11177128245829,-44.4247035040144,-57.26841775074898,-36.089655694326034,-29.172441391792397
1.547076442245084,-37.172994305110834,-42.17051286123261,-14.32935204069414,-23.931012131209577,-40.61616799802949,4.192819616271146,-24.18480451259677,-50.664038361934956,-41.39698697765435,-12.908402978050324,-22.422542222026564,-38.40814415385062,-24.007754597598698,-11.32310579309366
1.550983200937622,-18.832647696898512,-12.62963808438558,4.696570129339313,-6.160263978570683,-11.980085298006095,16.621291793607938,0.6627952381960731,-22.011938253350316,-29.14214547520033,-3.363832630140832,-0.7289123080287552,-22.807740074623418,-6.115936433882149,8.075782647797745
1.5548899596301602,-3.591995288445214,-2.155777153585525,26.380489118369148,2.838531868431762,5.1046314521165534,29.376241600355353,10.109270647065273,-8.189454540599458,2.8012087701455886,11.133223987527938,17.4744546822697,-11.33621676896071,3.5254830921606386,18.070298326973194
1.5587967183226983,19.792834576932023,15.074417303028461,36.51449961185162,12.972625341039063,31.367608093659147,13.751013377456827,12.981680990555738,11.99720316617484,15.274138170219638,16.367518367716954,20.823211203355402,-5.460559756724881,11.927728089841922,34.638064102273226
1.5627034770152364,27.38871843044015,27.79531952140833,19.62241348327633,3.6014877512376557,35.37312068521286,-0.8788845159672292,8.91449667888945,21.223264048289018,19.04946151524627,12.632329622330152,28.997987871199665,5.12837905322422,2.2770976519158936,36.60905877871514
1.5666102357077745,23.615817786540077,25.089307702342882,10.032559068613887,5.59283413810762,35.98091577050299,-9.261357365307495,-9.794540970324242,22.36246333665517,11.824717952824887,14.481055751262197,17.576101591818336,7.109231749293201,-2.4262762016839794,15.34908354010847
1.5705169944003126,14.940390896716107,25.311713960412256,-0.36860253202027193,7.105292310112535,20.20670644643658,-24.65313553914877,-16.448469157284627,21.09885642662013,15.798590024748988,-10.582877279992235,-7.522081460603358,12.612047809663743,-5.863884309219404,-6.168590147532907
1.5744237530928507,1.1341972148226356,5.448536208364072,-26.053515262123355,4.984307223517705,-15.082957790259913,-35.01845366860397,-20.666986453415173,21.66727544332028,-13.77550956517321,-17.64528409920926,-11.481689205464011,11.744849916938058,-13.784011627466334,-29.216650423894002
1.5783305117853887,-18.406791853668906,-3.8944066015857324,-29.5140211643816,-6.856650829514765,-17.131585252973416,-41.06666550233966,-21.60199825079428,20.76719200302724,-19.726967719026884,-29.98125655467022,-17.40655388247655,19.85560850046676,-9.093024907699814,-42.60256627596821
1.5822372704779268,-21.677456823985906,-13.17915739827641,-26.108448688776008,10.156390470038977,-25.269467234798917,-34.79842742244077,-24.08549201362164,16.005855214832657,-25.62799683727148,-25.020496599418244,-21.46542216256483,11.148679344309919,-11.243972343324693,-55.874983777198835
1.586144029170465,-27.145108028690306,-5.8766571192794705,-19.30027431234366,11.553157160374642,-24.97057658564514,-26.384642720371325,-5.776236581750305,9.105093203613336,-21.89725243603511,-22.377611296856784,-7.102334922830286,13.83211261095342,-1.9583688404965214,-42.62232895110304
1.590050787863003,-15.647282211279107,-9.876348681471754,-12.429850369148625,15.235239653414945,-20.82761034081935,1.2297202771469173,-3.2176020744325307,17.566458827173513,-22.986667089916377,-8.069374010927072,-7.224210521554066,25.13883504027068,-0.34016968583530716,-39.87293996217741
1.5939575465555411,3.864140267921324,1.4942250075876995,11.030423513164807,18.851482400383514,-0.017294670563769543,4.259856582288047,15.45770915385026,7.873164289973936,-7.749422684805461,11.835329093757458,17.044594462509476,14.3547127123466,5.9135348561261125,-2.8786533677694086
1.5978643052480792,17.57865823986075,12.579948337151967,31.071590002177807,16.10110469216504,20.772695435227334,20.911056283604935,26.822849467521866,13.010220876645,15.042661713377255,26.27029827714926,23.947184106251186,16.14172189817159,15.776940652816286,17.65335967059356
1.6017710639406173,24.285746149323437,21.640755970133956,57.342053205425586,-24.949491845010485,44.66279012994319,46.29900131241188,20.905589571147303,12.552916920308796,31.206242297330974,29.736440965998,32.24481261250201,-0.22415379014600134,27.619556356329067,52.842680235136015
1.6056778226331554,42.70665749398146,30.71483069321934,62.38040686011806,24.678686878154473,49.411217704869,44.630130020127446,35.75058809146107,9.393581698592392,40.83751921571229,36.082154989720735,34.300446098888095,1.8141863722959028,18.270154458829452,60.36248740894702
1.6095845813256935,41.92719861561773,29.325089661044547,67.20917304662541,24.008988336629898,48.50490774726886,53.9125024812093,35.292744069005046,8.069736257222846,39.27022168007922,44.17182291134133,45.980640785164574,3.03617795261116,24.25925425510808,64.62206814557841
1.6134913400182316,37.98093608961494,20.922155018845103,48.72024406948547,12.632688315341012,48.118063791014414,52.317730133973505,37.08803216863158,4.966792974388434,38.83254295787089,36.45270555590077,34.81939110310164,-0.0685239477309576,28.414633609066296,64.61057686166139
1.6173980987107697,30.317377531490926,20.473319755219936,27.187676769518117,19.02504051018831,22.64892291733456,33.02070047401202,22.849506983732816,-6.247070512678146,25.93241416181096,32.94501544225859,16.374745143984136,-0.9357499506515721,18.935551744207636,55.28409356728417
1.6213048574033078,17.178318546716802,13.375209173065944,7.952460406919102,10.120518190999295,12.09022980455796,28.164379057684823,18.212324465847725,-3.2935091261844924,27.13785300432722,22.054700789343503,-7.425495627041128,-2.313058386570207,15.599845521101209,27.67486787189221
1.6252116160958459,0.09144849732855054,-0.8952049150879775,-12.318135064175728,3.7209035649891167,-15.497683525409762,19.41303891072831,9.386292958032552,0.8114000968162962,18.779571859495256,9.179211390109,-9.615440028822135,0.681697081880869,21.23403654051662,13.07385308575437
1.629118374788384,-12.98307391615918,-14.517017331355966,-39.509821184201556,-3.5495263093021063,-23.96323917663358,3.796490412825941,1.7871645646774739,-4.815505046102615,5.134592895009133,-3.9394738709678863,-15.456204682888824,-6.206868914225216,14.779339496479452,-22.75176980226759
1.633025133480922,-20.661776975120635,-24.032050971472653,-45.04864770698614,-8.252342329983204,-39.701897526936335,-14.42902197577229,-5.37838586188417,-13.733865039869206,-16.93814497201599,-10.788126691423432,-28.28312031776105,7.107145470079702,-2.7073836654821277,-47.074775087111384
1.6369318921734601,-31.5041655835149,-25.08489005482634,-51.19666097690236,-13.525102605530225,-53.15207895505549,-32.33262286190875,-25.304022769944318,-11.306126914023443,-32.96606986468948,-26.542475123880998,-39.21455836168707,-5.357631600113102,-22.109875423328624,-52.60853282765624
1.6408386508659982,-40.26563209392829,-31.57694187877361,-52.21032618597028,-39.25065205266716,-50.80044919953617,-46.22452018702799,-43.46133594860194,-18.392431203467467,-42.55087874439407,-38.28975257859733,-51.59932817210801,-22.307206802703842,-38.77165837038603,-48.81441457558066
1.6447454095585363,-54.68848438524962,-46.04283633516276,-50.71258417547702,-51.82392080241446,-40.57459879993519,-54.50046478741358,-56.73175341272806,-29.42327479760644,-53.6198814293211,-47.75867842470485,-56.4346805627468,-25.85207516573154,-49.26225155449474,-52.27736897569757
1.6486521682510744,-54.60350928056104,-52.37793667683269,-35.72792066533445,-49.7106271180826,-40.04509310385432,-54.88098575599367,-61.42726085424804,-36.30786263604641,-47.148870013112415,-55.365373177626104,-53.1179215836145,-53.701829611077,-74.05491391948631,-48.99726571268465
1.6525589269436125,-51.51886482717474,-43.90663983074826,-28.577056554893527,-48.1854471384937,-38.20696109831322,-61.50703366003459,-57.66830316475322,-40.87735978416553,-43.9409140859309,-55.203663411639326,-44.8107169758877,-58.15138895023417,-62.941688380073984,-33.203960189515136
